timestamps,TP9,AF7,AF8,TP10,Right AUX
1584599217.423,13.184,27.344,15.137,25.879,66.895
1584599217.427,-26.367,20.996,14.648,-132.324,0.488
1584599217.431,26.855,29.297,22.949,14.648,-12.207
1584599217.435,73.242,36.133,27.832,196.777,-10.742
1584599217.438,24.902,29.785,23.438,85.449,-0.488
1584599217.442,-33.691,17.090,17.578,-125.488,24.414
1584599217.446,6.836,18.555,20.996,-55.176,15.137
1584599217.450,70.312,33.203,25.879,166.504,23.438
1584599217.454,45.898,34.668,25.391,145.508,33.691
1584599217.458,-24.902,20.996,21.484,-83.984,23.438
1584599217.462,-17.578,20.508,18.066,-103.516,12.207
1584599217.466,53.223,33.203,20.508,129.395,-23.926
1584599217.470,60.059,34.180,23.926,186.523,0.000
1584599217.474,-7.812,20.508,19.531,-29.785,4.395
1584599217.477,-30.273,17.090,18.066,-141.602,-20.508
1584599217.481,34.180,28.809,24.414,53.711,-10.742
1584599217.485,63.477,33.691,27.832,196.289,22.949
1584599217.489,6.836,24.902,23.438,34.180,52.734
1584599217.493,-35.645,17.578,18.066,-149.902,-3.906
1584599217.497,19.531,28.320,23.926,-17.090,21.973
1584599217.501,72.266,35.156,27.344,187.988,72.754
1584599217.505,35.645,25.879,20.996,95.215,65.430
1584599217.509,-25.391,19.043,13.184,-126.465,6.348
1584599217.513,-0.488,26.855,17.578,-71.289,-5.371
1584599217.517,67.383,34.180,28.320,164.062,68.359
1584599217.520,53.223,30.273,25.879,156.738,48.340
1584599217.524,-20.020,19.531,19.531,-77.148,17.090
1584599217.528,-20.508,18.555,20.508,-119.629,25.879
1584599217.532,50.293,27.832,27.344,106.934,-26.367
1584599217.536,57.617,28.320,27.832,185.547,29.785
1584599217.540,-5.371,21.484,20.020,-24.414,65.918
1584599217.544,-25.391,20.508,17.578,-144.043,30.762
1584599217.548,38.086,29.297,21.973,44.434,61.035
1584599217.552,74.707,35.156,24.414,197.266,58.594
1584599217.556,18.555,26.855,19.531,46.387,60.547
1584599217.560,-31.738,19.531,14.160,-139.160,46.387
1584599217.563,18.555,29.297,14.648,-22.949,-10.254
1584599217.567,75.684,38.086,17.578,176.270,11.230
1584599217.571,41.504,32.227,17.578,104.980,20.996
1584599217.575,-21.973,22.461,14.160,-115.723,0.488
1584599217.579,0.000,23.926,16.602,-86.426,62.012
1584599217.583,70.312,33.203,24.902,145.508,82.520
1584599217.587,59.082,35.156,25.879,158.691,28.809
1584599217.591,-19.531,24.414,20.508,-67.871,-2.441
1584599217.595,-22.949,20.020,20.996,-127.441,21.973
1584599217.599,50.293,31.738,26.855,86.426,31.250
1584599217.602,63.965,37.109,29.785,178.223,29.785
1584599217.606,-0.488,24.414,24.902,-9.766,47.363
1584599217.610,-32.227,16.602,21.973,-147.461,31.250
1584599217.614,27.344,26.855,25.391,21.484,54.199
1584599217.618,65.918,33.203,26.855,192.871,65.430
1584599217.622,14.648,20.996,26.855,63.477,8.301
1584599217.626,-41.504,11.719,21.484,-142.578,6.836
1584599217.630,-3.418,18.555,22.461,-46.875,21.973
1584599217.634,57.617,26.367,29.297,168.457,17.090
1584599217.638,32.715,20.996,30.762,114.746,25.879
1584599217.642,-32.227,7.812,27.832,-115.234,63.965
1584599217.645,-10.742,15.137,27.344,-109.375,39.551
1584599217.649,59.082,32.227,32.715,130.371,20.020
1584599217.653,55.664,30.762,31.738,169.434,30.762
1584599217.657,-10.254,19.043,25.391,-48.340,51.758
1584599217.661,-23.438,17.578,25.879,-133.789,37.109
1584599217.665,42.969,27.344,33.203,73.730,42.480
1584599217.669,62.988,30.273,34.668,190.430,70.801
1584599217.673,-0.977,20.996,26.367,6.348,51.270
1584599217.677,-39.062,16.113,22.461,-155.762,5.371
1584599217.681,15.625,25.879,30.273,3.418,-1.465
1584599217.685,63.477,32.227,36.133,189.453,63.965
1584599217.688,20.508,22.461,29.785,69.824,75.684
1584599217.692,-36.621,15.137,21.973,-147.949,-8.301
1584599217.696,2.930,25.391,24.414,-59.570,-7.324
1584599217.700,67.871,34.180,28.320,168.457,27.832
1584599217.704,41.016,26.855,25.879,124.023,11.719
1584599217.708,-31.738,16.602,21.973,-103.027,43.945
1584599217.712,-20.020,20.996,24.902,-112.793,33.203
1584599217.716,56.152,33.691,29.297,115.723,-21.973
1584599217.720,59.570,33.203,29.785,170.410,-34.180
1584599217.724,-11.719,21.484,25.391,-43.457,-20.020
1584599217.727,-28.320,18.555,23.926,-144.531,14.160
1584599217.731,41.992,29.785,27.832,49.805,16.602
1584599217.735,69.336,37.109,34.180,182.617,50.293
1584599217.739,8.301,26.367,33.691,24.902,60.059
1584599217.743,-37.109,18.066,26.367,-146.484,-18.555
1584599217.747,15.137,28.320,30.762,-12.207,50.293
1584599217.751,71.289,36.133,33.203,187.012,102.051
1584599217.755,35.156,29.785,27.344,89.355,31.250
1584599217.759,-30.273,21.484,22.949,-134.766,-16.602
1584599217.763,-2.441,25.391,25.391,-77.148,-44.922
1584599217.767,62.500,32.715,30.762,153.320,10.254
1584599217.770,40.527,28.320,28.320,139.160,36.621
1584599217.774,-29.785,17.578,19.531,-95.215,3.418
1584599217.778,-23.438,15.137,22.949,-134.766,-3.418
1584599217.782,48.828,28.320,33.203,91.309,10.742
1584599217.786,61.035,32.227,34.668,174.316,41.504
1584599217.790,-9.277,18.555,27.832,-27.344,36.621
1584599217.794,-35.156,12.695,24.902,-147.461,0.977
1584599217.798,30.273,26.855,31.738,40.039,-17.578
1584599217.802,61.035,33.203,38.574,196.289,-13.184
1584599217.806,8.789,22.461,34.668,44.434,15.137
1584599217.810,-40.039,14.648,29.785,-155.273,62.012
1584599217.813,9.766,23.438,31.738,-29.785,64.941
1584599217.817,66.406,30.273,36.133,184.082,5.859
1584599217.821,24.902,17.578,33.203,101.562,3.906
1584599217.825,-39.551,10.742,25.879,-124.023,52.246
1584599217.829,-12.695,19.043,26.855,-85.449,24.902
1584599217.833,54.199,27.832,32.227,149.902,22.949
1584599217.837,41.504,26.367,33.691,154.297,30.762
1584599217.841,-28.320,17.090,30.273,-70.312,35.156
1584599217.845,-31.250,19.531,31.250,-119.629,18.555
1584599217.849,40.527,32.227,35.156,92.773,23.438
1584599217.852,53.711,34.668,34.180,183.105,22.461
1584599217.856,-8.789,25.391,29.785,-9.277,26.367
1584599217.860,-34.668,20.020,28.320,-145.508,88.379
1584599217.864,28.809,29.297,32.227,29.297,60.547
1584599217.868,66.895,33.691,35.156,189.453,15.137
1584599217.872,15.137,24.414,30.273,51.270,46.387
1584599217.876,-35.645,18.555,22.949,-143.555,28.809
1584599217.880,5.859,24.902,25.879,-40.527,46.387
1584599217.884,66.895,33.691,30.762,177.734,24.902
1584599217.888,41.992,31.738,26.367,125.977,-13.184
1584599217.892,-21.484,22.461,19.043,-104.004,35.156
1584599217.895,-2.930,25.391,19.043,-97.656,29.297
1584599217.899,61.523,37.109,26.367,137.695,68.848
1584599217.903,55.664,35.645,27.344,168.457,88.867
1584599217.907,-11.719,24.414,21.484,-56.641,54.688
1584599217.911,-25.391,21.484,20.020,-136.719,17.578
1584599217.915,41.016,31.738,23.438,76.172,19.531
1584599217.919,64.453,35.156,23.926,189.941,23.438
1584599217.923,2.441,22.461,19.531,6.348,-1.953
1584599217.927,-34.668,15.137,15.625,-153.809,10.254
1584599217.931,25.391,28.320,20.020,2.930,24.902
1584599217.935,65.918,37.109,26.367,187.012,20.996
1584599217.938,13.672,27.344,26.855,75.684,33.691
1584599217.942,-42.480,18.555,23.438,-138.184,32.227
1584599217.946,-2.930,26.367,24.414,-65.430,7.324
1584599217.950,61.523,36.133,29.297,161.133,29.785
1584599217.954,38.086,31.250,25.879,124.512,76.172
1584599217.958,-27.832,20.508,19.043,-105.469,65.918
1584599217.962,-14.648,22.461,21.973,-114.258,-6.348
1584599217.966,55.664,33.691,31.250,118.164,19.043
1584599217.970,59.570,31.738,30.273,168.457,26.855
1584599217.974,-7.812,20.508,23.438,-49.805,-12.695
1584599217.977,-26.855,18.555,21.484,-145.508,18.555
1584599217.981,41.016,29.297,24.902,60.547,62.988
1584599217.985,70.312,31.250,24.414,192.871,99.121
1584599217.989,11.719,22.461,17.578,23.926,48.340
1584599217.993,-28.320,18.066,16.602,-151.855,0.488
1584599217.997,24.902,25.879,24.414,-7.324,6.348
1584599218.001,68.359,32.715,26.367,188.965,23.926
1584599218.005,26.367,24.902,20.020,87.402,46.875
1584599218.009,-33.691,15.625,17.578,-130.371,-2.930
1584599218.013,-4.883,19.043,23.438,-68.848,-7.812
1584599218.017,60.547,27.344,28.320,154.785,-18.555
1584599218.020,44.434,26.367,25.879,131.836,-40.527
1584599218.024,-25.391,18.066,20.020,-86.914,0.488
1584599218.028,-24.902,17.090,21.973,-115.723,25.879
1584599218.032,48.340,27.832,27.832,104.980,19.043
1584599218.036,61.035,32.227,27.832,179.199,56.641
1584599218.040,-6.836,22.461,22.461,-25.391,75.195
1584599218.044,-30.762,17.578,19.043,-140.625,57.129
1584599218.048,36.133,27.344,23.926,46.387,47.852
1584599218.052,62.500,29.297,25.879,190.430,28.809
1584599218.056,1.953,21.973,20.508,33.203,-10.742
1584599218.060,-39.062,19.043,18.555,-143.066,29.785
1584599218.063,12.207,25.391,21.973,-25.391,81.055
1584599218.067,64.453,35.645,25.391,171.387,-13.672
1584599218.071,31.250,32.715,22.461,100.098,-41.504
1584599218.075,-30.273,21.973,11.719,-125.977,25.391
1584599218.079,2.930,28.809,14.160,-81.543,50.781
1584599218.083,63.477,40.039,30.273,144.043,26.855
1584599218.087,26.367,33.203,30.273,124.023,43.945
1584599218.091,-46.875,21.484,20.508,-106.934,67.871
1584599218.095,-42.969,21.484,21.484,-149.414,35.156
1584599218.099,28.809,32.227,29.785,81.055,41.016
1584599218.102,29.297,30.762,36.621,156.738,51.270
1584599218.106,-41.016,14.648,29.785,-56.152,-22.461
1584599218.110,-60.547,14.160,26.367,-181.152,-24.902
1584599218.114,-9.277,23.926,36.133,-5.371,33.691
1584599218.118,10.254,22.949,40.039,143.066,54.688
1584599218.122,-41.504,9.766,35.156,4.883,114.746
1584599218.126,-91.309,-0.977,34.180,-189.453,35.156
1584599218.130,-52.246,5.371,45.410,-87.402,-28.809
1584599218.134,-2.441,16.113,47.852,118.164,22.461
1584599218.138,-41.504,14.648,39.551,44.434,42.480
1584599218.142,-111.816,2.930,38.574,-186.035,65.430
1584599218.145,-97.168,3.418,41.504,-172.852,41.016
1584599218.149,-33.203,10.742,49.316,59.570,63.965
1584599218.153,-44.922,2.930,52.246,78.125,27.832
1584599218.157,-114.258,-10.254,41.504,-150.391,-4.883
1584599218.161,-124.023,-7.324,38.574,-214.844,42.480
1584599218.165,-52.246,4.883,51.270,-3.418,53.223
1584599218.169,-32.715,3.906,54.199,98.633,64.453
1584599218.173,-104.492,-6.836,44.922,-90.820,81.055
1584599218.177,-137.207,-8.789,42.480,-236.816,39.062
1584599218.181,-77.148,1.465,50.781,-72.754,31.250
1584599218.185,-41.992,7.324,51.270,94.238,18.066
1584599218.188,-84.961,0.488,45.898,-28.320,16.602
1584599218.192,-132.812,-5.371,42.969,-229.492,40.039
1584599218.196,-100.098,-0.977,46.387,-149.902,31.738
1584599218.200,-46.387,6.348,51.270,73.730,20.996
1584599218.204,-62.988,5.371,49.316,42.480,43.945
1584599218.208,-128.418,-5.859,43.457,-190.918,26.367
1584599218.212,-114.258,-1.953,42.969,-191.895,3.418
1584599218.216,-43.945,10.254,49.805,40.039,19.043
1584599218.220,-47.363,7.324,50.293,88.379,99.121
1584599218.224,-101.074,-6.348,45.410,-112.793,65.430
1584599218.227,-102.051,-7.324,44.922,-196.289,13.672
1584599218.231,-43.945,11.719,45.898,-2.930,7.324
1584599218.235,-24.414,20.020,45.410,117.188,-13.672
1584599218.239,-83.008,3.906,42.969,-53.223,39.062
1584599218.243,-123.535,-1.953,39.062,-216.309,44.922
1584599218.247,-58.105,10.742,43.945,-59.570,17.578
1584599218.251,4.395,17.578,45.410,139.160,56.641
1584599218.255,-35.645,12.695,37.598,34.180,63.965
1584599218.259,-101.562,9.277,29.785,-188.477,15.137
1584599218.263,-70.312,19.043,30.762,-124.023,9.277
1584599218.267,-3.906,28.809,39.551,103.516,-7.324
1584599218.270,-24.902,26.855,37.598,80.566,24.414
1584599218.274,-93.750,14.160,31.250,-145.996,-11.230
1584599218.278,-78.613,13.184,36.133,-161.133,-46.387
1584599218.282,-0.488,24.902,38.574,76.660,-9.766
1584599218.286,3.418,24.902,31.738,136.230,3.906
1584599218.290,-66.406,15.625,21.973,-85.449,74.707
1584599218.294,-82.031,16.113,15.625,-192.871,114.746
1584599218.298,-19.043,29.297,20.020,-1.465,64.941
1584599218.302,9.277,30.273,23.926,134.277,53.711
1584599218.306,-47.852,19.531,20.020,-20.508,80.566
1584599218.310,-93.750,14.160,19.531,-191.895,10.254
1584599218.313,-39.062,16.602,26.367,-61.523,-43.457
1584599218.317,19.531,22.461,33.203,140.625,-2.441
1584599218.321,-15.137,13.672,31.738,62.500,58.594
1584599218.325,-72.754,3.418,25.391,-146.973,34.668
1584599218.329,-42.969,9.277,25.391,-104.004,10.254
1584599218.333,20.996,22.461,25.391,119.141,14.648
1584599218.337,8.301,25.391,20.996,113.281,9.766
1584599218.341,-61.035,19.531,18.555,-116.211,53.223
1584599218.345,-56.641,23.438,19.531,-154.297,70.801
1584599218.349,17.090,33.203,23.438,67.383,14.648
1584599218.352,21.484,35.645,24.414,145.508,-23.438
1584599218.356,-50.781,23.926,21.484,-52.246,52.734
1584599218.360,-68.359,13.184,24.414,-169.434,54.688
1584599218.364,9.766,19.043,32.227,27.344,8.301
1584599218.368,55.664,32.227,30.273,192.871,10.742
1584599218.372,-0.488,31.250,20.020,27.344,15.625
1584599218.376,-57.129,22.949,12.207,-177.246,13.672
1584599218.380,-18.066,29.785,16.602,-61.035,35.645
1584599218.384,32.227,33.691,27.344,151.855,70.801
1584599218.388,13.184,25.879,28.809,100.098,24.414
1584599218.392,-41.504,20.508,19.531,-125.000,-3.906
1584599218.395,-31.738,29.297,13.184,-121.094,12.695
1584599218.399,38.086,44.434,18.066,116.211,33.203
1584599218.403,40.527,43.457,20.996,145.508,30.762
1584599218.407,-39.551,25.879,19.043,-79.102,9.766
1584599218.411,-50.293,21.973,21.484,-144.043,12.695
1584599218.415,36.621,31.250,31.738,81.543,9.277
1584599218.419,63.477,37.109,31.738,196.777,34.668
1584599218.423,-13.184,32.227,18.555,-3.906,77.637
1584599218.427,-65.918,28.809,13.672,-173.340,41.016
1584599218.431,-9.766,38.574,20.996,-10.742,4.883
1584599218.435,46.387,42.969,22.461,172.363,48.340
1584599218.438,10.742,32.715,15.137,50.781,42.969
1584599218.442,-47.852,25.391,15.137,-150.391,-6.836
1584599218.446,-15.137,31.250,21.973,-58.594,-13.672
1584599218.450,40.527,41.992,22.949,144.043,-3.906
1584599218.454,16.113,37.598,16.113,98.145,20.020
1584599218.458,-53.711,26.367,14.648,-123.047,1.953
1584599218.462,-49.805,22.949,20.020,-131.836,-1.953
1584599218.466,35.156,28.809,27.344,114.746,77.148
1584599218.470,47.852,34.180,25.879,160.645,66.895
1584599218.474,-30.762,28.320,12.207,-76.172,19.043
1584599218.477,-49.805,24.902,9.766,-168.945,46.387
1584599218.481,18.555,33.203,15.137,42.480,50.293
1584599218.485,44.922,39.551,15.137,166.016,31.738
1584599218.489,-11.230,27.344,13.672,1.465,34.668
1584599218.493,-52.246,16.602,13.672,-150.879,1.465
1584599218.497,2.441,28.809,17.578,-12.207,-39.062
1584599218.501,43.945,36.133,18.066,159.180,25.391
1584599218.505,1.465,31.250,12.207,53.223,43.457
1584599218.509,-46.387,26.367,5.859,-144.531,28.320
1584599218.513,-16.113,27.344,13.672,-67.383,47.363
1584599218.517,45.410,29.297,27.832,159.180,60.059
1584599218.520,36.133,27.832,25.879,141.113,60.547
1584599218.524,-39.551,21.973,13.672,-101.562,41.016
1584599218.528,-35.645,25.879,9.277,-139.160,25.391
1584599218.532,45.410,45.898,13.672,103.516,43.457
1584599218.536,50.293,43.457,20.996,170.410,53.711
1584599218.540,-25.391,25.391,20.020,-40.039,22.461
1584599218.544,-45.898,19.531,20.996,-139.160,-13.672
1584599218.548,32.227,29.785,29.297,57.617,-16.113
1584599218.552,69.824,35.645,28.320,200.684,31.250
1584599218.556,8.301,29.297,18.066,36.133,90.820
1584599218.560,-41.992,22.949,14.160,-148.926,60.547
1584599218.563,7.324,24.902,22.949,-22.461,0.000
1584599218.567,65.918,34.180,27.344,181.641,38.574
1584599218.571,34.668,29.297,20.996,91.309,30.273
1584599218.575,-28.320,22.461,13.672,-135.742,3.418
1584599218.579,1.953,34.668,17.578,-80.566,70.801
1584599218.583,62.500,41.992,23.926,151.855,61.523
1584599218.587,39.551,36.133,19.043,143.066,11.230
1584599218.591,-26.367,28.320,9.766,-83.984,56.641
1584599218.595,-25.879,31.250,11.719,-128.906,26.855
1584599218.599,36.621,36.621,21.484,87.402,15.137
1584599218.602,46.387,33.203,23.438,160.645,24.414
1584599218.606,-16.602,20.996,17.578,-38.086,20.020
1584599218.610,-47.852,15.137,17.090,-158.691,31.738
1584599218.614,17.090,22.461,27.832,23.438,1.953
1584599218.618,63.477,22.949,35.645,185.547,25.879
1584599218.622,21.973,18.066,30.273,49.805,74.219
1584599218.626,-33.203,20.508,19.531,-148.438,34.668
1584599218.630,3.418,32.227,18.066,-47.363,-2.441
1584599218.634,65.918,41.016,19.043,166.016,31.738
1584599218.638,19.043,29.785,20.996,91.797,33.691
1584599218.642,-60.059,11.719,20.020,-133.789,28.320
1584599218.645,-19.043,15.625,20.508,-88.379,35.156
1584599218.649,60.547,32.715,22.949,138.672,22.461
1584599218.653,53.223,38.574,15.137,144.043,-2.930
1584599218.657,-14.648,29.785,7.812,-76.660,-10.254
1584599218.661,-36.133,24.902,12.207,-144.531,58.105
1584599218.665,20.020,34.668,24.414,61.035,19.531
1584599218.669,43.945,32.227,28.809,166.016,-14.648
1584599218.673,-6.836,14.648,22.949,-4.883,41.016
1584599218.677,-24.902,10.254,22.461,-134.277,27.344
1584599218.681,33.203,25.879,25.391,19.531,-18.555
1584599218.685,56.152,36.621,22.949,169.922,-6.836
1584599218.688,7.812,31.250,13.184,41.504,47.363
1584599218.692,-37.598,22.949,7.812,-150.879,75.195
1584599218.696,-1.465,28.320,18.066,-60.059,64.453
1584599218.700,53.223,35.645,25.879,159.180,28.809
1584599218.704,28.320,24.902,21.484,118.652,37.109
1584599218.708,-30.273,9.277,17.578,-104.004,52.734
1584599218.712,-15.625,21.484,18.066,-106.934,-14.160
1584599218.716,49.805,39.062,20.996,113.770,24.414
1584599218.720,57.129,36.133,18.066,160.645,70.801
1584599218.724,-10.254,22.949,15.137,-53.223,-2.930
1584599218.727,-36.133,17.578,23.926,-145.508,-13.672
1584599218.731,32.227,26.367,29.785,67.871,3.906
1584599218.735,63.965,31.250,27.832,192.383,18.555
1584599218.739,-0.488,27.832,17.578,2.930,-5.859
1584599218.743,-51.270,21.973,10.742,-173.340,-4.883
1584599218.747,17.090,32.715,14.160,-10.742,10.254
1584599218.751,72.754,41.504,19.043,183.105,20.020
1584599218.755,18.066,26.367,18.066,63.965,0.000
1584599218.759,-38.574,19.043,14.160,-142.090,7.812
1584599218.763,-7.324,27.344,19.043,-67.871,45.898
1584599218.767,57.129,34.180,26.367,159.180,64.453
1584599218.770,45.410,29.785,27.344,136.719,126.465
1584599218.774,-27.344,20.508,21.484,-101.562,68.848
1584599218.778,-24.902,18.555,22.949,-121.582,-12.207
1584599218.782,44.434,23.926,34.668,112.305,1.465
1584599218.786,61.035,24.414,36.621,180.664,52.246
1584599218.790,1.465,18.555,26.367,-29.297,32.715
1584599218.794,-28.809,20.020,18.066,-147.949,43.945
1584599218.798,34.180,29.785,24.414,44.434,62.012
1584599218.802,70.801,30.762,27.344,187.988,3.418
1584599218.806,14.160,25.391,20.996,21.973,1.465
1584599218.810,-41.016,21.973,16.602,-163.574,-0.488
1584599218.813,5.371,29.785,18.555,-36.133,4.883
1584599218.817,61.523,40.527,25.391,166.992,-9.277
1584599218.821,25.391,33.203,26.367,80.078,-0.488
1584599218.825,-34.668,20.508,21.973,-138.672,23.926
1584599218.829,-3.906,24.414,23.438,-80.566,53.711
1584599218.833,61.523,37.598,27.344,150.879,83.984
1584599218.837,39.062,36.621,21.973,133.789,75.684
1584599218.841,-33.203,25.879,14.160,-100.098,54.199
1584599218.845,-25.879,31.250,11.719,-129.395,54.199
1584599218.849,39.062,39.062,19.531,94.727,53.223
1584599218.852,41.016,31.250,24.902,158.691,18.555
1584599218.856,-19.531,16.602,20.020,-40.527,17.578
1584599218.860,-32.715,16.113,16.113,-153.320,4.883
1584599218.864,30.762,32.715,18.555,36.133,2.441
1584599218.868,52.246,36.621,20.996,191.895,27.344
1584599218.872,-7.812,20.996,20.020,35.645,22.949
1584599218.876,-46.875,8.301,20.508,-149.414,11.230
1584599218.880,13.184,18.555,24.902,-18.066,-5.371
1584599218.884,63.477,33.691,25.391,182.129,19.043
1584599218.888,16.113,28.320,20.996,91.309,74.219
1584599218.892,-46.387,17.090,15.625,-134.277,60.059
1584599218.895,-10.254,22.461,20.508,-86.914,36.621
1584599218.899,67.383,35.645,28.320,159.668,30.273
1584599218.903,49.805,37.598,22.461,164.551,36.133
1584599218.907,-27.832,29.297,12.207,-81.055,63.965
1584599218.911,-30.273,32.227,10.254,-139.160,124.023
1584599218.915,46.875,44.434,17.578,84.961,98.145
1584599218.919,56.641,41.504,22.461,179.199,73.730
1584599218.923,-16.113,26.367,20.508,-14.648,50.293
1584599218.927,-40.527,20.020,20.020,-143.555,49.805
1584599218.931,27.832,27.832,24.414,35.645,71.289
1584599218.935,71.777,39.551,22.949,195.801,21.973
1584599218.938,19.531,33.203,17.090,58.594,-10.742
1584599218.942,-45.410,19.043,16.113,-147.461,-5.859
1584599218.946,-9.277,22.461,22.949,-58.105,21.973
1584599218.950,56.641,30.273,29.297,159.180,64.941
1584599218.954,34.180,27.832,27.832,116.211,14.160
1584599218.958,-28.320,19.043,19.531,-111.328,-17.578
1584599218.962,-11.230,20.020,19.043,-103.516,-20.996
1584599218.966,58.594,33.203,24.414,134.766,27.344
1584599218.970,50.781,35.156,19.531,161.133,-2.441
1584599218.974,-24.414,21.484,9.766,-67.383,-22.949
1584599218.977,-31.250,20.996,9.277,-141.113,38.086
1584599218.981,44.434,33.203,17.090,77.148,21.484
1584599218.985,70.312,31.738,21.973,191.406,38.086
1584599218.989,11.230,18.066,20.508,11.719,41.992
1584599218.993,-29.785,15.625,16.602,-148.926,14.160
1584599218.997,19.531,30.762,19.531,0.488,3.906
1584599219.001,68.848,38.574,23.926,188.477,20.020
1584599219.005,19.043,25.391,22.949,72.754,48.828
1584599219.009,-41.504,13.184,20.996,-134.766,56.641
1584599219.013,6.348,23.438,22.949,-39.551,34.180
1584599219.017,68.359,36.621,23.926,174.316,18.066
1584599219.020,38.086,33.203,16.602,119.629,0.000
1584599219.024,-30.273,22.461,11.230,-104.004,16.602
1584599219.028,-12.695,21.484,15.625,-104.492,18.066
1584599219.032,65.430,34.180,20.508,127.441,-32.715
1584599219.036,60.059,39.551,17.090,172.363,-24.414
1584599219.040,-18.555,29.785,12.695,-48.340,-21.973
1584599219.044,-33.691,24.414,13.184,-143.555,-22.461
1584599219.048,38.574,37.109,18.066,65.918,56.152
1584599219.052,72.754,42.480,20.020,202.637,60.059
1584599219.056,18.555,32.227,20.020,34.180,25.391
1584599219.060,-21.484,29.297,18.066,-129.395,49.316
1584599219.063,20.996,39.551,20.508,0.000,26.855
1584599219.067,58.594,43.945,24.902,175.781,26.367
1584599219.071,24.902,36.133,21.973,86.914,49.316
1584599219.075,-27.832,28.320,19.043,-114.258,43.945
1584599219.079,0.977,32.715,20.508,-57.129,11.719
1584599219.083,68.359,41.504,26.855,169.434,44.434
1584599219.087,56.641,41.504,24.414,151.367,42.480
1584599219.091,-22.461,32.227,13.184,-91.309,47.363
1584599219.095,-21.973,28.809,10.742,-123.047,96.191
1584599219.099,58.105,36.133,17.090,117.188,50.293
1584599219.102,74.219,38.086,21.484,191.406,20.508
1584599219.106,2.930,26.367,18.555,-22.949,33.691
1584599219.110,-31.250,23.438,13.184,-143.555,35.645
1584599219.114,33.691,32.715,17.578,44.434,17.090
1584599219.118,71.289,35.645,26.367,197.266,13.672
1584599219.122,16.602,27.344,23.438,48.340,13.672
1584599219.126,-33.691,17.578,17.578,-139.648,14.160
1584599219.130,14.160,24.414,23.438,-19.531,17.090
1584599219.134,72.754,32.715,26.855,187.988,21.973
1584599219.138,42.480,26.367,23.926,114.258,3.906
1584599219.142,-24.414,15.625,21.484,-117.188,30.762
1584599219.145,-3.906,20.020,23.438,-86.914,68.848
1584599219.149,56.152,30.273,26.367,149.902,53.223
1584599219.153,41.992,28.809,22.949,156.738,72.754
1584599219.157,-23.926,20.020,16.113,-73.242,56.152
1584599219.161,-29.785,19.043,15.137,-128.906,3.418
1584599219.165,42.480,30.762,21.973,92.773,33.691
1584599219.169,60.059,32.227,20.508,185.059,50.293
1584599219.173,0.000,18.555,12.695,-7.324,-16.113
1584599219.177,-22.461,15.625,13.184,-140.625,-34.180
1584599219.181,41.504,26.855,20.996,40.527,43.457
1584599219.185,77.148,30.762,21.973,195.312,94.238
1584599219.188,23.926,23.438,16.113,47.363,54.688
1584599219.192,-26.855,18.066,14.160,-140.137,43.457
1584599219.196,17.090,22.949,19.531,-29.785,4.883
1584599219.200,73.242,27.832,26.367,186.035,6.836
1584599219.204,37.598,20.996,20.508,119.141,55.176
1584599219.208,-30.762,15.137,8.789,-118.164,-8.789
1584599219.212,-14.160,20.020,10.254,-100.098,-7.324
1584599219.216,59.082,28.320,19.043,142.090,19.531
1584599219.220,61.035,27.344,16.602,170.410,-4.395
1584599219.224,-3.418,19.531,8.301,-54.688,40.039
1584599219.227,-11.230,21.484,7.812,-130.859,91.309
1584599219.231,49.805,29.785,12.695,74.707,61.035
1584599219.235,63.965,29.297,15.137,183.105,11.719
1584599219.239,0.488,18.555,12.207,1.465,12.695
1584599219.243,-30.273,10.254,11.230,-148.926,-17.578
1584599219.247,32.715,20.020,18.555,23.438,-12.695
1584599219.251,77.637,30.762,23.926,207.031,-27.344
1584599219.255,21.973,20.996,19.531,75.684,-43.945
1584599219.259,-41.504,9.766,8.301,-143.066,-1.953
1584599219.263,10.742,22.949,10.742,-50.781,32.715
1584599219.267,80.078,38.086,16.113,180.176,19.043
1584599219.270,41.016,32.715,13.184,134.277,-8.301
1584599219.274,-35.645,15.137,12.207,-103.027,5.371
1584599219.278,-22.949,10.742,18.066,-106.934,61.035
1584599219.282,63.477,22.949,25.879,133.301,119.629
1584599219.286,73.242,27.344,23.926,188.965,47.852
1584599219.290,-7.324,19.043,13.184,-36.621,36.621
1584599219.294,-30.273,18.066,10.254,-137.695,75.684
1584599219.298,41.504,27.832,18.555,75.195,24.902
1584599219.302,81.055,30.762,24.414,208.496,44.434
1584599219.306,19.531,20.508,21.484,31.738,61.035
1584599219.310,-30.762,15.137,14.648,-143.066,-8.789
1584599219.313,28.320,27.832,15.625,-0.488,3.418
1584599219.317,77.148,36.621,20.508,188.477,58.594
1584599219.321,31.738,28.320,13.184,80.078,38.086
1584599219.325,-35.156,17.578,9.277,-139.648,16.113
1584599219.329,-5.371,20.508,21.484,-64.453,11.230
1584599219.333,62.012,24.414,26.367,166.992,-14.648
1584599219.337,42.969,15.625,24.902,144.531,4.883
1584599219.341,-22.949,6.348,20.996,-79.590,53.711
1584599219.345,-12.695,13.184,18.555,-103.516,-11.230
1584599219.349,59.570,25.879,23.438,121.582,14.648
1584599219.352,62.988,23.438,24.414,186.523,67.871
1584599219.356,-5.371,13.672,20.508,-25.391,1.465
1584599219.360,-30.273,9.277,19.531,-139.160,13.184
1584599219.364,37.109,20.508,24.414,54.688,58.105
1584599219.368,72.266,29.297,20.996,198.242,75.684
1584599219.372,14.160,22.949,16.602,40.039,76.660
1584599219.376,-32.227,12.695,19.043,-138.184,53.223
1584599219.380,24.902,18.555,21.484,-11.719,0.000
1584599219.384,87.402,28.809,24.902,197.266,52.246
1584599219.388,51.758,27.344,20.020,118.652,43.945
1584599219.392,-20.020,19.531,13.184,-104.004,-1.953
1584599219.395,0.000,19.043,18.555,-70.801,35.156
1584599219.399,67.871,25.391,25.879,151.855,22.461
1584599219.403,61.523,24.902,24.902,160.645,-29.785
1584599219.407,-5.859,16.113,21.484,-60.059,-40.039
1584599219.411,-18.555,8.789,23.438,-115.723,-11.230
1584599219.415,46.875,17.578,31.250,94.727,23.926
1584599219.419,63.965,25.879,30.762,186.523,42.480
1584599219.423,5.859,14.648,23.926,-3.906,-25.391
1584599219.427,-18.066,10.742,21.973,-126.465,19.531
1584599219.431,38.574,21.484,28.320,53.223,45.898
1584599219.435,71.289,21.484,35.645,215.332,3.906
1584599219.438,17.578,13.184,28.809,72.266,37.109
1584599219.442,-37.109,11.230,16.602,-142.578,55.664
1584599219.446,14.160,22.949,16.602,-35.645,34.180
1584599219.450,75.684,34.180,21.484,184.082,28.809
1584599219.454,39.062,31.738,15.625,117.188,32.715
1584599219.458,-25.879,19.043,11.230,-107.910,47.363
1584599219.462,-2.441,17.578,20.020,-79.102,31.738
1584599219.466,70.801,27.832,31.738,160.645,21.973
1584599219.470,59.082,19.531,33.203,177.734,14.648
1584599219.474,-13.672,9.766,23.926,-60.059,15.625
1584599219.477,-20.020,19.531,15.137,-127.441,30.273
1584599219.481,44.434,31.250,18.555,94.727,71.777
1584599219.485,66.895,30.762,21.484,197.754,79.590
1584599219.489,8.301,20.996,15.625,6.836,40.527
1584599219.493,-29.785,17.090,14.160,-144.043,-29.785
1584599219.497,30.273,23.438,24.902,31.250,-26.855
1584599219.501,77.148,25.879,29.297,211.426,74.219
1584599219.505,36.621,15.625,23.926,89.355,62.988
1584599219.509,-14.160,8.789,20.996,-108.398,37.598
1584599219.513,16.602,24.902,20.996,-35.156,14.648
1584599219.517,69.336,41.016,20.020,169.434,35.645
1584599219.520,41.016,35.156,17.090,118.164,10.742
1584599219.524,-20.508,22.949,14.648,-105.957,-54.688
1584599219.528,-1.465,20.996,17.090,-90.332,-14.160
1584599219.532,71.777,30.762,22.949,145.508,36.621
1584599219.536,68.359,27.344,23.438,185.547,45.898
1584599219.540,-9.277,13.672,16.602,-39.551,28.320
1584599219.544,-18.066,17.578,15.625,-121.582,20.996
1584599219.548,53.711,33.203,22.461,87.891,2.930
1584599219.552,77.148,34.668,25.879,197.266,-13.184
1584599219.556,12.207,24.902,19.043,19.043,-15.137
1584599219.560,-32.227,21.484,13.184,-143.066,14.160
1584599219.563,24.902,28.809,22.461,3.906,28.809
1584599219.567,69.824,30.762,33.203,195.801,-19.043
1584599219.571,22.949,16.602,29.297,94.727,-6.836
1584599219.575,-37.109,7.324,21.973,-129.883,20.020
1584599219.579,1.953,20.508,19.531,-64.941,58.594
1584599219.583,71.289,36.133,19.043,167.480,49.316
1584599219.587,55.176,29.297,14.160,146.973,15.625
1584599219.591,-12.695,12.207,13.184,-84.473,58.594
1584599219.595,-5.859,11.719,18.555,-109.863,30.762
1584599219.599,63.965,26.367,20.508,122.070,21.484
1584599219.602,67.383,31.250,21.484,180.176,42.480
1584599219.606,-2.441,16.602,21.973,-32.227,-3.906
1584599219.610,-25.391,10.742,23.926,-139.648,-14.648
1584599219.614,31.738,25.391,31.738,52.734,30.762
1584599219.618,59.570,35.156,31.250,192.383,45.898
1584599219.622,5.371,30.273,18.066,26.855,25.391
1584599219.626,-39.551,23.926,13.184,-149.902,25.879
1584599219.630,16.113,28.320,24.902,-6.836,39.062
1584599219.634,68.848,31.250,34.668,190.918,46.387
1584599219.638,17.578,23.438,31.250,86.914,33.203
1584599219.642,-46.387,14.648,24.902,-136.230,51.758
1584599219.645,-9.766,21.973,28.809,-72.754,45.898
1584599219.649,60.059,32.715,34.180,160.156,-15.625
1584599219.653,43.457,29.297,28.320,148.926,55.176
1584599219.657,-30.273,20.508,18.555,-83.984,124.023
1584599219.661,-24.414,20.020,19.531,-123.047,72.266
1584599219.665,53.711,30.762,25.391,107.910,46.875
1584599219.669,63.965,33.203,27.832,190.430,88.379
1584599219.673,-6.836,17.090,25.879,-7.324,67.383
1584599219.677,-34.180,5.371,28.320,-133.789,13.672
1584599219.681,27.832,17.578,36.621,36.621,51.758
1584599219.685,62.012,34.180,32.715,184.082,28.809
1584599219.688,8.789,32.227,20.508,42.480,-17.578
1584599219.692,-41.504,24.902,16.602,-137.695,25.391
1584599219.696,4.883,26.855,27.832,-25.391,55.176
1584599219.700,62.012,31.250,35.156,176.270,34.668
1584599219.704,24.902,25.391,28.809,104.004,5.859
1584599219.708,-39.062,15.137,22.461,-124.023,-2.441
1584599219.712,-5.859,22.949,20.508,-83.008,11.230
1584599219.716,69.336,37.109,24.414,154.297,62.500
1584599219.720,56.152,29.297,28.320,156.738,92.773
1584599219.724,-19.043,13.672,23.926,-71.289,62.988
1584599219.727,-29.297,17.090,21.973,-137.695,21.973
1584599219.731,40.039,33.691,25.391,78.613,25.879
1584599219.735,54.688,38.086,26.367,178.711,13.672
1584599219.739,-7.324,26.367,23.438,-14.160,-44.434
1584599219.743,-30.762,22.461,22.949,-159.668,10.742
1584599219.747,29.297,34.668,26.367,11.719,63.965
1584599219.751,68.848,43.457,29.297,190.918,11.719
1584599219.755,17.090,35.156,23.438,58.594,22.461
1584599219.759,-42.480,22.461,18.555,-143.066,10.254
1584599219.763,1.465,31.738,25.879,-38.574,-8.789
1584599219.767,62.012,43.945,30.762,171.875,0.488
1584599219.770,27.832,34.180,23.926,112.793,29.785
1584599219.774,-43.457,20.996,16.113,-118.164,20.508
1584599219.778,-23.438,23.926,21.484,-111.328,-14.648
1584599219.782,53.711,36.133,28.809,125.000,0.488
1584599219.786,51.270,33.203,24.902,159.668,23.926
1584599219.790,-18.555,22.949,21.973,-62.988,25.879
1584599219.794,-28.320,26.855,23.438,-145.508,28.809
1584599219.798,44.434,41.016,25.879,61.523,63.477
1584599219.802,65.918,43.457,27.344,179.199,62.988
1584599219.806,-0.488,34.180,24.414,7.324,3.418
1584599219.810,-38.086,26.855,23.438,-147.461,-44.434
1584599219.813,23.926,32.715,29.785,-0.977,-5.859
1584599219.817,69.336,40.039,35.156,178.223,12.207
1584599219.821,20.020,32.227,31.250,64.453,34.668
1584599219.825,-37.598,22.461,23.438,-144.043,44.434
1584599219.829,0.000,24.902,28.320,-65.918,20.020
1584599219.833,57.617,28.809,34.180,155.762,16.113
1584599219.837,39.551,28.320,31.738,128.418,16.113
1584599219.841,-21.484,24.414,23.926,-95.703,26.367
1584599219.845,-19.043,24.902,22.949,-115.234,-14.160
1584599219.849,50.293,31.738,29.785,107.422,-34.668
1584599219.852,52.734,34.180,30.273,166.016,23.926
1584599219.856,-16.602,24.414,26.367,-37.109,3.418
1584599219.860,-30.273,20.020,25.879,-141.602,-37.109
1584599219.864,35.645,31.250,30.762,50.781,11.230
1584599219.868,64.941,35.645,34.180,190.918,43.945
1584599219.872,10.254,26.855,30.762,30.273,69.336
1584599219.876,-37.598,20.020,25.391,-150.391,34.180
1584599219.880,9.277,27.832,29.297,-16.602,29.785
1584599219.884,62.012,34.668,35.156,181.641,63.477
1584599219.888,29.785,30.762,27.832,95.215,6.836
1584599219.892,-27.344,20.508,17.578,-122.559,-1.465
1584599219.895,1.465,26.367,18.555,-74.219,59.570
1584599219.899,63.965,41.504,24.902,155.762,48.340
1584599219.903,43.945,37.109,27.832,145.508,37.598
1584599219.907,-28.809,21.484,20.508,-80.078,68.848
1584599219.911,-25.879,18.555,20.020,-118.652,27.344
1584599219.915,47.363,29.297,28.809,99.121,20.996
1584599219.919,52.734,30.273,29.297,173.828,-2.930
1584599219.923,-17.090,20.508,21.973,-32.227,13.184
1584599219.927,-37.109,18.066,21.484,-148.926,24.902
1584599219.931,27.832,29.785,28.320,41.016,20.020
1584599219.935,62.012,34.180,30.273,191.895,17.090
1584599219.938,9.277,21.973,24.902,35.645,25.879
1584599219.942,-38.086,15.625,22.949,-153.809,55.176
1584599219.946,11.719,28.320,25.391,-26.855,22.461
1584599219.950,66.406,37.598,25.879,180.664,7.324
1584599219.954,26.855,32.715,21.973,107.910,14.648
1584599219.958,-37.598,20.996,17.578,-116.699,31.738
1584599219.962,-10.254,22.461,20.996,-87.891,-12.695
1584599219.966,55.664,32.227,25.879,146.484,7.324
1584599219.970,44.434,30.762,24.414,152.832,50.781
1584599219.974,-27.832,16.602,22.949,-78.613,13.672
1584599219.977,-34.668,15.625,24.414,-137.695,38.086
1584599219.981,41.504,29.297,27.832,80.566,48.828
1584599219.985,61.035,33.691,31.738,179.199,33.691
1584599219.989,0.977,24.902,29.297,-6.836,38.574
1584599219.993,-29.785,18.066,24.414,-145.020,76.660
1584599219.997,26.855,27.832,29.297,29.297,98.145
1584599220.001,65.918,33.203,35.156,191.406,69.336
1584599220.005,20.020,24.902,31.250,58.105,72.754
1584599220.009,-27.832,15.625,23.926,-139.648,16.113
1584599220.013,14.160,24.902,24.902,-45.898,-14.648
1584599220.017,68.848,40.039,28.320,168.945,-16.113
1584599220.020,36.133,34.668,25.391,114.258,-22.949
1584599220.024,-29.297,23.438,16.602,-114.746,45.898
1584599220.028,-14.160,26.855,19.043,-107.910,63.477
1584599220.032,54.199,37.598,28.320,129.883,34.668
1584599220.036,49.805,33.691,27.344,172.363,14.160
1584599220.040,-22.461,16.113,22.949,-48.828,25.879
1584599220.044,-32.227,14.160,25.879,-128.418,27.344
1584599220.048,38.086,30.273,32.715,81.055,0.000
1584599220.052,60.547,37.598,30.273,187.988,16.113
1584599220.056,3.906,30.762,23.926,8.301,39.551
1584599220.060,-25.391,22.461,21.973,-143.555,34.180
1584599220.063,33.691,26.855,28.320,11.719,-9.766
1584599220.067,75.195,33.203,27.832,188.477,11.230
1584599220.071,23.438,23.438,17.578,63.477,20.508
1584599220.075,-33.691,18.066,13.672,-146.484,-19.043
1584599220.079,4.395,29.785,20.508,-50.781,9.766
1584599220.083,64.453,36.133,31.250,175.293,-1.465
1584599220.087,37.109,25.879,32.227,126.953,-4.883
1584599220.091,-32.715,11.230,25.391,-104.980,33.691
1584599220.095,-16.113,14.648,26.367,-109.375,10.742
1584599220.099,59.570,27.344,32.227,129.395,37.109
1584599220.102,61.035,25.879,35.156,182.129,59.082
1584599220.106,-11.719,14.648,29.785,-41.016,29.297
1584599220.110,-28.809,16.602,27.344,-143.066,16.602
1584599220.114,39.062,31.250,29.785,58.105,7.812
1584599220.118,67.871,36.133,27.832,185.059,14.648
1584599220.122,12.207,25.879,25.391,24.414,16.113
1584599220.126,-27.832,16.113,25.391,-139.648,33.691
1584599220.130,29.297,22.461,33.691,6.348,57.129
1584599220.134,75.195,26.367,38.574,203.613,60.059
1584599220.138,28.809,24.414,30.273,91.309,-19.043
1584599220.142,-34.180,21.973,21.484,-132.324,-0.977
1584599220.145,-0.488,26.367,20.020,-72.754,94.727
1584599220.149,70.312,35.156,25.391,157.715,65.430
1584599220.153,49.316,30.273,26.855,142.578,24.902
1584599220.157,-22.949,19.043,20.020,-88.867,35.156
1584599220.161,-17.090,19.043,20.508,-119.141,42.969
1584599220.165,54.199,29.785,28.809,109.375,83.008
1584599220.169,57.617,29.785,30.762,180.176,39.551
1584599220.173,-10.254,16.602,24.902,-18.555,8.301
1584599220.177,-31.250,16.602,20.020,-134.766,38.086
1584599220.181,35.645,32.227,24.902,45.898,85.938
1584599220.185,67.383,37.109,28.320,197.754,112.793
1584599220.188,12.695,24.414,24.902,45.410,1.465
1584599220.192,-33.203,9.766,23.438,-140.137,-35.156
1584599220.196,12.207,16.113,32.715,-16.602,-8.789
1584599220.200,64.941,29.785,35.645,186.523,28.320
1584599220.204,30.273,27.832,22.949,105.957,74.219
1584599220.208,-34.180,22.461,13.184,-122.070,50.781
1584599220.212,-8.301,29.785,18.066,-88.379,9.766
1584599220.216,67.871,38.574,28.320,149.414,12.695
1584599220.220,57.129,31.738,23.926,158.203,68.848
1584599220.224,-17.090,20.508,14.160,-67.871,53.711
1584599220.227,-16.602,23.926,15.625,-123.047,-10.254
1584599220.231,47.363,31.738,23.926,95.703,26.855
1584599220.235,54.199,28.320,28.809,187.988,-0.488
1584599220.239,-7.812,21.973,23.926,-14.160,-13.184
1584599220.243,-29.297,22.949,19.043,-143.555,40.527
1584599220.247,36.621,29.785,22.949,38.574,59.570
1584599220.251,72.754,32.227,28.809,198.242,61.035
1584599220.255,17.578,22.461,23.926,55.664,43.945
1584599220.259,-34.668,15.137,19.043,-140.625,22.461
1584599220.263,13.184,23.438,24.902,-31.250,-29.297
1584599220.267,71.777,32.715,28.320,182.617,-29.297
1584599220.270,27.344,28.320,25.391,108.887,24.414
1584599220.274,-38.574,21.973,20.996,-113.281,11.230
1584599220.278,-8.301,28.320,20.996,-84.961,-34.668
1584599220.282,65.918,37.109,22.461,142.578,-20.508
1584599220.286,59.570,33.691,21.484,166.016,29.297
1584599220.290,-19.531,20.508,18.555,-62.500,60.059
1584599220.294,-35.156,15.625,19.531,-142.090,-4.395
1584599220.298,37.598,26.855,23.438,70.312,-30.273
1584599220.302,62.988,28.320,24.414,187.500,1.465
1584599220.306,3.906,15.625,21.484,6.836,27.832
1584599220.310,-30.762,14.648,21.484,-149.414,69.824
1584599220.313,24.414,24.902,26.855,6.348,79.102
1584599220.317,64.941,32.715,28.809,187.988,43.945
1584599220.321,19.043,25.879,24.902,73.242,39.062
1584599220.325,-32.715,14.648,20.020,-133.301,13.184
1584599220.329,7.324,19.531,22.461,-42.480,18.066
1584599220.333,63.477,30.273,26.367,166.992,25.879
1584599220.337,36.621,27.344,20.996,117.188,0.488
1584599220.341,-27.344,19.043,15.137,-110.352,0.488
1584599220.345,-15.137,20.996,18.066,-118.652,22.461
1584599220.349,57.617,29.785,24.414,118.164,16.602
1584599220.352,58.594,31.738,26.855,171.875,7.324
1584599220.356,-18.555,16.602,20.996,-53.223,0.977
1584599220.360,-34.180,14.648,16.602,-158.203,19.531
1584599220.364,34.668,27.832,21.973,47.363,2.930
1584599220.368,58.594,23.926,21.973,184.082,-25.391
1584599220.372,6.348,14.160,17.090,20.996,-17.090
1584599220.376,-29.297,18.066,15.137,-145.020,8.789
1584599220.380,18.066,24.902,17.090,-4.395,62.500
1584599220.384,65.918,25.391,16.113,188.477,109.863
1584599220.388,26.367,19.531,12.695,85.938,61.523
1584599220.392,-35.156,12.695,10.742,-129.395,-16.113
1584599220.395,-1.465,22.949,11.230,-67.871,26.855
1584599220.399,62.988,34.668,17.090,157.715,101.074
1584599220.403,39.062,30.762,18.555,135.742,100.586
1584599220.407,-32.227,23.438,12.207,-96.680,60.059
1584599220.411,-23.438,26.855,9.766,-121.094,-6.836
1584599220.415,54.199,37.109,16.602,111.328,-12.207
1584599220.419,64.941,34.180,25.391,184.082,17.578
1584599220.423,-2.930,20.020,22.461,-23.438,21.973
1584599220.427,-29.297,15.625,13.184,-145.020,-14.648
1584599220.431,31.738,26.855,15.137,40.039,12.695
1584599220.435,67.871,33.691,20.020,185.059,7.324
1584599220.438,9.277,22.461,15.625,26.367,1.465
1584599220.442,-41.016,15.137,12.207,-154.785,17.090
1584599220.446,5.859,22.461,20.020,-20.020,38.086
1584599220.450,60.059,31.250,28.320,183.594,71.289
1584599220.454,32.715,29.297,25.879,100.586,82.031
1584599220.458,-27.344,17.090,19.531,-117.676,86.426
1584599220.462,-2.441,18.066,20.996,-74.219,49.805
1584599220.466,65.918,28.320,29.785,156.738,25.391
1584599220.470,48.340,29.785,27.832,156.250,62.012
1584599220.474,-21.484,22.949,17.578,-73.730,24.902
1584599220.477,-20.508,22.461,16.113,-123.535,9.766
1584599220.481,46.387,28.809,24.414,102.539,57.129
1584599220.485,60.059,26.855,30.273,191.406,20.508
1584599220.489,-5.859,17.090,26.855,-12.207,-6.836
1584599220.493,-39.062,18.066,23.438,-153.320,30.762
1584599220.497,24.902,33.203,28.809,20.508,52.734
1584599220.501,67.871,40.527,28.320,186.523,31.250
1584599220.505,25.391,33.203,17.578,56.641,7.812
1584599220.509,-24.902,25.391,16.113,-133.789,-34.668
1584599220.513,14.160,30.762,28.809,-26.367,25.879
1584599220.517,69.824,37.109,35.156,183.594,68.848
1584599220.520,34.668,29.297,26.855,114.746,31.250
1584599220.524,-30.762,19.043,18.555,-111.816,0.488
1584599220.528,-1.953,28.320,22.949,-83.984,3.906
1584599220.532,69.336,37.109,29.297,148.438,58.594
1584599220.536,54.688,29.297,27.832,163.574,41.016
1584599220.540,-18.066,17.090,24.902,-64.453,-10.254
1584599220.544,-22.949,20.508,21.484,-122.559,17.090
1584599220.548,54.199,33.203,22.461,96.680,17.090
1584599220.552,72.754,34.180,27.344,195.312,2.930
1584599220.556,-0.488,21.484,28.320,7.812,76.660
1584599220.560,-37.109,15.137,26.367,-144.043,94.238
1584599220.563,22.461,24.414,27.832,15.625,43.457
1584599220.567,64.941,33.691,25.879,190.430,44.922
1584599220.571,18.555,30.762,17.090,63.965,23.438
1584599220.575,-35.645,24.902,11.719,-137.695,7.324
1584599220.579,2.930,29.297,17.578,-48.828,-19.531
1584599220.583,59.082,36.621,28.320,169.434,-29.297
1584599220.587,32.715,29.785,29.297,128.418,-15.625
1584599220.591,-33.691,19.531,24.902,-95.703,-16.113
1584599220.595,-21.484,17.578,23.926,-102.051,59.570
1584599220.599,50.293,26.367,26.855,117.188,58.594
1584599220.602,53.223,32.227,26.367,161.133,-33.203
1584599220.606,-14.160,24.902,18.066,-52.246,-11.719
1584599220.610,-31.250,24.414,18.066,-140.137,22.949
1584599220.614,38.086,35.156,28.809,70.312,32.227
1584599220.618,65.918,35.156,31.738,198.730,47.363
1584599220.622,5.859,19.531,24.414,19.043,58.594
1584599220.626,-33.203,15.625,21.484,-151.367,60.547
1584599220.630,24.902,28.320,26.855,-2.930,42.969
1584599220.634,73.730,35.645,30.273,190.430,22.461
1584599220.638,33.203,27.832,25.391,94.727,-2.441
1584599220.642,-25.391,14.160,21.973,-121.582,42.969
1584599220.645,1.953,18.555,28.809,-66.406,40.527
1584599220.649,66.406,29.785,36.621,160.645,-14.648
1584599220.653,47.363,27.344,31.250,140.137,-18.555
1584599220.657,-27.832,17.090,19.531,-92.773,43.457
1584599220.661,-19.043,21.484,20.020,-117.188,28.320
1584599220.665,58.105,34.668,26.855,116.699,10.742
1584599220.669,65.918,30.762,28.320,187.988,0.488
1584599220.673,1.465,15.625,25.391,-18.066,27.344
1584599220.677,-21.973,14.648,26.367,-134.766,41.016
1584599220.681,36.133,26.367,32.227,54.199,28.320
1584599220.685,65.918,28.809,33.691,197.266,41.016
1584599220.688,15.625,18.066,27.344,35.156,7.324
1584599220.692,-30.273,16.113,20.020,-147.461,35.645
1584599220.696,17.578,30.273,22.949,-18.066,30.762
1584599220.700,66.406,37.109,29.297,185.059,10.742
1584599220.704,30.273,27.344,27.832,98.633,37.109
1584599220.708,-27.344,16.602,23.926,-123.535,37.109
1584599220.712,1.465,23.926,25.391,-77.148,11.719
1584599220.716,68.848,33.691,29.297,144.531,15.625
1584599220.720,52.734,30.273,28.320,137.695,-4.395
1584599220.724,-22.949,20.020,24.902,-86.914,0.000
1584599220.727,-25.879,18.555,24.902,-127.930,77.148
1584599220.731,44.434,29.297,30.273,95.215,58.105
1584599220.735,53.711,30.762,32.227,173.340,41.992
1584599220.739,-5.371,21.973,29.297,-15.625,65.430
1584599220.743,-31.250,16.113,26.855,-131.348,44.434
1584599220.747,33.203,26.367,31.738,48.340,7.324
1584599220.751,73.242,35.645,38.086,206.543,57.617
1584599220.755,19.043,29.785,29.297,65.430,90.332
1584599220.759,-26.855,19.531,20.020,-137.207,11.719
1584599220.763,14.648,23.438,21.484,-37.109,-54.199
1584599220.767,67.871,34.668,25.391,177.734,-15.625
1584599220.770,39.062,27.344,22.949,113.770,8.301
1584599220.774,-25.391,16.113,18.066,-119.629,4.395
1584599220.778,-8.301,21.973,20.996,-103.027,33.691
1584599220.782,60.547,33.691,29.297,134.277,-21.484
1584599220.786,53.711,29.785,28.320,161.133,-6.348
1584599220.790,-22.949,9.766,21.973,-64.453,11.719
1584599220.794,-35.156,5.859,23.926,-134.277,-9.277
1584599220.798,35.645,24.414,24.414,74.707,-24.902
1584599220.802,57.129,33.691,20.996,178.223,-62.500
1584599220.806,-3.418,23.926,20.508,-1.953,-5.859
1584599220.810,-36.621,16.113,20.508,-145.508,31.250
1584599220.813,21.484,21.973,27.832,13.184,41.016
1584599220.817,62.012,32.227,31.250,186.035,73.242
1584599220.821,14.648,26.367,24.414,57.617,93.750
1584599220.825,-37.598,18.555,19.043,-148.926,-17.090
1584599220.829,6.348,27.832,23.926,-45.898,-30.273
1584599220.833,64.941,34.180,31.738,176.270,68.848
1584599220.837,33.203,28.320,29.297,126.465,41.992
1584599220.841,-36.621,15.137,22.949,-105.469,19.043
1584599220.845,-16.602,17.578,25.879,-106.934,-27.344
1584599220.849,54.199,29.297,30.762,126.953,-10.742
1584599220.852,54.199,31.738,26.367,168.457,10.254
1584599220.856,-11.230,21.484,23.438,-43.945,-27.344
1584599220.860,-27.344,15.137,27.832,-124.023,-12.695
1584599220.864,35.645,26.367,32.715,73.730,-15.625
1584599220.868,62.012,32.227,33.691,193.848,14.648
1584599220.872,8.789,25.879,27.832,21.973,68.848
1584599220.876,-33.203,20.996,16.113,-143.066,52.734
1584599220.880,19.043,27.344,18.555,5.859,46.875
1584599220.884,69.336,31.250,26.367,188.477,4.883
1584599220.888,28.809,20.996,22.461,84.961,-11.230
1584599220.892,-27.832,14.160,16.113,-121.094,37.598
1584599220.895,2.441,23.926,20.508,-53.711,65.918
1584599220.899,63.477,31.250,29.785,171.387,45.898
1584599220.903,39.551,23.438,28.320,139.648,58.594
1584599220.907,-27.344,13.184,20.508,-91.797,23.438
1584599220.911,-13.184,16.113,18.066,-110.352,33.203
1584599220.915,56.152,31.250,22.949,118.652,54.199
1584599220.919,54.688,33.203,25.391,171.875,22.949
1584599220.923,-15.137,21.484,19.531,-43.457,30.273
1584599220.927,-30.273,17.578,18.066,-144.043,47.852
1584599220.931,37.109,26.367,24.414,55.176,67.871
1584599220.935,63.965,28.809,24.902,191.895,48.340
1584599220.938,9.766,22.461,16.113,29.297,23.926
1584599220.942,-35.645,17.090,10.742,-146.973,2.930
1584599220.946,13.184,23.926,18.555,-15.625,-23.438
1584599220.950,66.406,33.203,24.902,183.594,25.879
1584599220.954,22.461,23.926,19.531,89.355,37.598
1584599220.958,-46.875,15.137,13.672,-134.766,5.371
1584599220.962,-12.695,23.438,18.555,-77.148,56.152
1584599220.966,60.059,35.645,27.832,161.621,47.363
1584599220.970,40.039,31.738,28.320,145.508,-8.301
1584599220.974,-33.691,19.531,22.461,-95.215,-14.648
1584599220.977,-27.344,24.902,22.949,-129.395,20.996
1584599220.981,48.828,38.086,27.832,100.098,27.832
1584599220.985,57.129,37.109,25.879,179.199,40.039
1584599220.989,-7.812,22.461,22.461,-20.996,84.473
1584599220.993,-33.203,15.137,20.996,-146.973,30.273
1584599220.997,33.691,24.902,30.273,41.504,8.789
1584599221.001,72.266,30.762,32.715,194.824,34.668
1584599221.005,15.625,22.949,24.902,41.504,38.086
1584599221.009,-41.992,15.625,22.461,-150.391,48.340
1584599221.013,-0.977,24.414,24.902,-37.109,47.852
1584599221.017,58.594,33.691,26.367,167.480,63.477
1584599221.020,29.785,31.250,22.461,99.121,69.824
1584599221.024,-27.832,22.461,20.020,-116.211,58.594
1584599221.028,-3.418,23.926,27.344,-86.914,36.133
1584599221.032,60.547,30.273,35.645,146.973,15.137
1584599221.036,50.293,27.832,34.668,160.645,48.340
1584599221.040,-18.066,20.020,25.879,-61.035,85.449
1584599221.044,-24.902,20.020,21.973,-121.582,63.965
1584599221.048,41.504,32.227,29.785,93.262,48.828
1584599221.052,52.246,32.715,32.715,184.570,14.160
1584599221.056,-12.207,22.949,26.855,-12.695,-5.371
1584599221.060,-48.340,16.602,24.414,-154.785,21.484
1584599221.063,13.184,21.973,31.738,9.277,19.531
1584599221.067,62.012,33.203,37.109,183.594,35.156
1584599221.071,12.695,28.320,32.715,63.477,72.266
1584599221.075,-37.598,17.090,30.273,-126.953,93.750
1584599221.079,4.883,20.996,32.227,-29.785,61.523
1584599221.083,59.570,26.855,35.156,168.457,25.879
1584599221.087,29.297,23.926,31.738,117.676,58.594
1584599221.091,-35.645,16.602,21.973,-108.398,63.477
1584599221.095,-14.648,20.996,21.484,-103.027,61.035
1584599221.099,60.059,33.691,31.250,137.207,45.410
1584599221.102,54.688,31.738,36.133,172.852,33.691
1584599221.106,-20.508,16.602,32.227,-57.129,32.715
1584599221.110,-33.203,16.602,30.273,-145.508,-8.301
1584599221.114,38.574,34.180,32.715,71.289,-1.953
1584599221.118,69.824,37.598,32.227,197.266,4.395
1584599221.122,3.906,23.926,29.297,15.137,32.715
1584599221.126,-46.875,18.066,23.438,-151.855,66.406
1584599221.130,12.207,28.320,27.832,0.488,1.953
1584599221.134,61.035,31.250,31.738,186.523,46.875
1584599221.138,16.602,23.926,26.855,68.848,57.617
1584599221.142,-42.969,20.996,23.438,-138.672,1.465
1584599221.145,-8.301,26.855,31.250,-61.523,32.715
1584599221.149,60.547,36.621,36.133,159.180,21.973
1584599221.153,43.457,32.227,31.738,130.371,19.043
1584599221.157,-22.461,22.949,25.879,-98.145,49.805
1584599221.161,-11.230,29.297,25.391,-107.910,44.922
1584599221.165,53.223,41.504,29.785,121.094,18.066
1584599221.169,50.781,38.574,29.785,171.875,48.828
1584599221.173,-16.113,24.414,23.926,-41.992,80.566
1584599221.177,-29.785,22.949,23.438,-138.672,64.941
1584599221.181,41.016,31.738,28.809,64.453,40.527
1584599221.185,69.336,36.621,27.832,197.266,24.414
1584599221.188,9.277,28.809,25.879,31.250,39.551
1584599221.192,-32.715,20.508,24.902,-138.184,52.734
1584599221.196,19.043,26.367,23.926,-12.695,57.129
1584599221.200,66.895,34.180,24.902,169.922,-17.090
1584599221.204,24.414,30.273,25.391,83.496,-42.969
1584599221.208,-38.574,19.043,24.414,-129.883,41.504
1584599221.212,-6.348,24.902,30.762,-74.707,89.844
1584599221.216,60.547,37.598,33.691,155.273,98.633
1584599221.220,43.945,29.785,31.250,148.438,77.637
1584599221.224,-27.832,15.137,25.391,-79.590,8.301
1584599221.227,-21.484,17.090,24.902,-115.723,-48.828
1584599221.231,54.199,29.785,33.691,106.445,0.977
1584599221.235,62.012,32.227,37.598,184.082,12.207
1584599221.239,-7.812,17.578,31.738,-10.742,2.441
1584599221.243,-30.762,13.184,25.879,-146.973,9.277
1584599221.247,34.180,29.297,32.227,35.645,48.828
1584599221.251,66.895,34.180,33.203,197.754,37.109
1584599221.255,16.602,22.949,24.414,49.805,10.254
1584599221.259,-29.297,14.160,23.438,-136.230,59.570
1584599221.263,17.090,23.438,28.809,-16.113,90.332
1584599221.267,74.707,34.180,27.344,187.012,21.973
1584599221.270,37.598,25.879,21.484,105.469,-1.465
1584599221.274,-32.227,15.137,16.602,-121.094,-3.418
1584599221.278,-10.254,19.043,19.531,-86.426,11.719
1584599221.282,62.012,30.273,26.367,152.344,75.195
1584599221.286,54.688,26.855,25.879,162.598,59.570
1584599221.290,-18.066,17.090,16.602,-77.148,-2.441
1584599221.294,-23.438,21.973,14.648,-133.789,25.879
1584599221.298,48.340,30.762,21.484,91.797,41.016
1584599221.302,63.477,28.809,26.855,187.012,14.648
1584599221.306,-0.488,17.578,24.902,-7.812,57.617
1584599221.310,-29.785,18.555,21.484,-149.414,48.828
1584599221.313,33.691,30.273,25.879,26.855,16.602
1584599221.317,71.289,33.203,27.344,190.430,15.137
1584599221.321,10.742,23.926,21.484,50.293,16.602
1584599221.325,-43.457,16.113,16.113,-143.555,30.762
1584599221.329,8.301,23.926,22.949,-39.551,66.895
1584599221.333,71.777,32.227,28.320,178.711,54.199
1584599221.337,42.480,24.414,25.391,119.629,4.883
1584599221.341,-27.344,13.672,21.484,-111.816,7.812
1584599221.345,-10.254,21.973,17.578,-101.562,29.785
1584599221.349,61.523,36.133,17.090,130.371,30.762
1584599221.352,62.500,36.133,17.578,166.016,10.254
1584599221.356,-4.395,22.949,9.766,-58.105,-58.105
1584599221.360,-19.043,17.578,7.812,-140.625,-74.707
1584599221.364,49.805,30.273,15.137,69.336,-44.922
1584599221.368,72.754,33.691,19.531,190.918,14.160
1584599221.372,7.812,20.996,17.578,15.625,-3.906
1584599221.376,-28.809,15.137,13.672,-141.113,-58.594
1584599221.380,30.762,27.344,19.531,13.672,11.719
1584599221.384,75.684,31.738,23.438,197.266,21.973
1584599221.388,31.250,23.438,19.531,84.961,-45.898
1584599221.392,-28.320,17.090,13.672,-127.930,-8.789
1584599221.395,12.695,24.414,18.555,-44.922,40.527
1584599221.399,77.148,36.133,25.879,180.176,27.344
1584599221.403,47.363,32.715,20.996,141.602,54.199
1584599221.407,-20.996,20.020,17.090,-86.914,45.898
1584599221.411,-6.836,20.020,19.043,-96.191,43.945
1584599221.415,61.523,28.809,25.391,132.812,61.035
1584599221.419,61.523,26.855,27.832,183.105,59.082
1584599221.423,-7.812,13.184,18.066,-34.180,57.617
1584599221.427,-27.832,11.230,13.184,-136.719,57.129
1584599221.431,42.969,25.391,22.461,69.336,67.871
1584599221.435,67.383,27.344,28.320,203.613,23.438
1584599221.438,1.465,12.695,24.902,28.320,3.906
1584599221.442,-35.156,9.277,21.973,-147.461,11.230
1584599221.446,22.949,23.926,24.414,-4.883,-34.668
1584599221.450,73.242,33.691,27.344,189.453,-47.852
1584599221.454,33.203,29.297,27.832,91.797,-3.418
1584599221.458,-32.227,20.020,25.391,-123.535,9.766
1584599221.462,-4.883,21.973,23.438,-68.359,33.691
1584599221.466,64.453,31.738,29.785,167.480,46.875
1584599221.470,48.828,30.762,30.273,158.691,25.879
1584599221.474,-19.531,19.531,20.996,-78.613,-28.809
1584599221.477,-13.672,22.461,23.438,-108.398,-8.789
1584599221.481,59.082,33.691,30.273,115.723,24.414
1584599221.485,64.453,30.273,28.320,181.152,32.227
1584599221.489,-3.418,21.973,21.973,-16.602,51.270
1584599221.493,-20.996,21.484,18.066,-126.465,21.973
1584599221.497,45.898,31.738,23.438,61.035,27.344
1584599221.501,73.242,34.668,27.344,207.031,71.289
1584599221.505,14.648,25.391,25.391,55.176,70.801
1584599221.509,-28.320,16.602,20.996,-129.883,24.414
1584599221.513,21.484,24.414,20.996,-10.254,9.277
1584599221.517,75.684,37.109,26.367,193.848,28.809
1584599221.520,39.062,32.715,26.855,113.770,39.062
1584599221.524,-22.949,20.996,23.926,-103.516,34.180
1584599221.528,4.883,24.902,22.949,-71.289,4.395
1584599221.532,66.895,36.621,25.879,147.949,9.277
1584599221.536,52.734,31.250,27.344,161.133,-10.742
1584599221.540,-16.113,20.020,22.461,-61.523,7.324
1584599221.544,-17.578,19.043,20.020,-119.629,4.883
1584599221.548,55.176,31.250,26.855,99.609,26.855
1584599221.552,71.777,33.691,31.250,193.848,64.941
1584599221.556,3.906,22.949,27.344,-3.906,1.465
1584599221.560,-32.715,22.461,23.926,-142.578,-4.395
1584599221.563,32.715,33.203,23.438,31.738,-20.020
1584599221.567,76.172,34.668,26.855,198.242,33.691
1584599221.571,23.438,21.484,22.949,59.570,62.988
1584599221.575,-30.762,13.672,21.973,-143.066,13.672
1584599221.579,10.254,20.996,29.785,-38.086,52.734
1584599221.583,70.312,30.273,33.691,182.129,51.270
1584599221.587,39.551,25.879,27.832,127.441,-9.766
1584599221.591,-34.668,16.602,20.020,-109.375,-11.719
1584599221.595,-18.555,20.508,21.973,-101.562,38.574
1584599221.599,57.129,27.832,26.367,131.348,62.988
1584599221.602,52.734,24.414,24.414,160.645,50.781
1584599221.606,-19.531,16.602,19.043,-61.035,43.457
1584599221.610,-25.391,17.578,20.508,-131.348,52.246
1584599221.614,46.875,28.320,25.879,88.379,38.086
1584599221.618,69.336,30.273,27.832,192.871,42.480
1584599221.622,10.254,19.531,24.414,7.324,70.801
1584599221.626,-25.391,14.160,21.484,-140.137,35.156
1584599221.630,31.738,21.973,27.832,19.043,30.762
1584599221.634,74.219,29.297,32.715,197.754,69.824
1584599221.638,28.809,24.414,26.367,77.148,84.473
1584599221.642,-24.902,16.113,20.508,-129.395,42.969
1584599221.645,10.254,23.438,24.902,-44.922,-23.926
1584599221.649,67.383,36.621,26.855,173.340,-9.766
1584599221.653,43.457,30.762,24.414,140.137,9.766
1584599221.657,-27.344,15.137,19.531,-92.285,8.789
1584599221.661,-12.695,18.066,20.508,-108.398,53.223
1584599221.665,63.965,30.273,28.809,129.395,50.293
1584599221.669,66.406,31.738,27.832,175.293,-32.715
1584599221.673,-1.465,21.973,21.973,-38.574,-29.297
1584599221.677,-19.043,17.090,22.949,-132.812,41.504
1584599221.681,49.805,28.809,25.879,67.871,82.031
1584599221.685,80.566,36.621,26.367,202.637,17.578
1584599221.688,22.949,26.367,23.438,31.250,-21.973
1584599221.692,-14.648,18.555,21.484,-133.301,7.812
1584599221.696,35.156,28.809,24.902,10.742,28.809
1584599221.700,71.777,35.156,28.809,192.383,-4.883
1584599221.704,27.832,25.391,30.273,93.750,34.668
1584599221.708,-32.227,16.113,26.855,-120.605,55.176
1584599221.712,-2.930,21.973,26.367,-62.988,28.320
1584599221.716,64.453,32.715,32.227,162.109,77.148
1584599221.720,47.852,27.832,30.762,146.484,38.086
1584599221.724,-23.926,14.648,24.414,-84.473,17.578
1584599221.727,-20.020,19.043,28.809,-117.188,64.453
1584599221.731,53.223,27.832,33.203,116.699,80.078
1584599221.735,58.594,25.879,26.855,179.688,18.066
1584599221.739,-13.184,15.625,19.531,-36.133,11.230
1584599221.743,-31.738,14.160,20.508,-143.066,22.461
1584599221.747,33.691,25.391,26.855,50.781,8.789
1584599221.751,62.500,31.250,30.273,194.824,24.902
1584599221.755,9.277,23.926,25.391,37.598,18.555
1584599221.759,-36.133,17.090,20.508,-142.578,-3.418
1584599221.763,16.602,25.879,24.902,-7.812,11.230
1584599221.767,64.453,31.738,28.320,187.500,13.672
1584599221.770,25.391,25.879,23.926,97.168,21.484
1584599221.774,-28.320,20.020,20.996,-118.164,7.812
1584599221.778,0.977,24.902,22.461,-68.848,43.945
1584599221.782,65.918,34.668,26.367,164.551,31.738
1584599221.786,48.340,30.273,23.926,164.062,10.742
1584599221.790,-26.367,15.137,19.531,-65.918,38.574
1584599221.794,-27.344,15.137,22.949,-110.352,38.086
1584599221.798,48.340,25.879,28.320,112.305,49.805
1584599221.802,63.965,29.785,25.879,186.523,-7.324
1584599221.806,-1.953,24.902,17.578,-13.672,-41.992
1584599221.810,-26.855,20.508,16.602,-139.160,-7.324
1584599221.813,36.621,28.320,21.973,36.133,39.551
1584599221.817,68.848,35.645,27.344,193.848,41.016
1584599221.821,18.066,25.879,23.926,58.594,-20.996
1584599221.825,-29.785,14.648,16.113,-137.207,-2.930
1584599221.829,18.555,23.438,20.508,-26.367,46.875
1584599221.833,75.684,35.156,28.320,187.500,21.484
1584599221.837,40.039,27.832,27.832,120.605,12.695
1584599221.841,-26.855,19.531,20.996,-103.516,90.820
1584599221.845,-4.883,24.902,19.043,-83.496,88.379
1584599221.849,64.941,32.227,25.391,148.926,75.684
1584599221.852,57.617,32.715,26.367,173.340,61.523
1584599221.856,-12.695,21.484,20.020,-53.223,-0.977
1584599221.860,-17.578,18.555,17.578,-131.348,16.113
1584599221.864,53.711,35.156,23.438,84.473,32.227
1584599221.868,68.359,36.133,23.926,193.359,32.715
1584599221.872,1.953,25.879,20.020,7.324,12.695
1584599221.876,-31.738,25.391,20.020,-142.578,11.719
1584599221.880,28.320,35.156,25.391,23.438,51.758
1584599221.884,74.707,42.969,28.809,201.172,61.523
1584599221.888,29.785,34.668,24.414,73.242,13.184
1584599221.892,-29.297,23.926,16.602,-130.859,4.395
1584599221.895,7.812,30.273,19.043,-45.410,6.348
1584599221.899,67.383,39.062,26.855,168.945,-0.488
1584599221.903,38.086,32.227,24.902,121.094,58.594
1584599221.907,-30.762,22.461,19.043,-110.840,1.953
1584599221.911,-9.766,27.832,22.461,-103.027,-11.719
1584599221.915,65.430,38.086,29.785,134.277,40.039
1584599221.919,62.500,36.133,31.738,178.223,16.113
1584599221.923,-11.230,24.902,23.926,-41.504,16.113
1584599221.927,-25.879,22.949,20.996,-133.789,23.438
1584599221.931,45.410,35.156,25.879,72.754,46.875
1584599221.935,65.430,35.645,28.809,194.336,54.688
1584599221.938,0.977,21.973,24.902,18.555,58.105
1584599221.942,-38.574,17.090,22.949,-143.555,23.438
1584599221.946,19.531,24.414,27.344,0.977,17.090
1584599221.950,73.730,33.203,29.297,186.035,38.086
1584599221.954,32.715,29.785,25.391,89.355,20.020
1584599221.958,-28.320,19.043,18.555,-124.023,-0.977
1584599221.962,7.324,23.926,23.926,-58.594,-13.672
1584599221.966,70.801,34.180,32.715,174.805,45.898
1584599221.970,47.363,28.320,27.832,147.461,5.859
1584599221.974,-20.996,17.578,21.484,-88.379,-13.672
1584599221.977,-12.695,20.508,23.926,-105.469,45.410
1584599221.981,58.105,33.203,31.250,124.512,47.852
1584599221.985,64.453,34.180,29.297,182.129,59.570
1584599221.989,-1.953,22.949,20.996,-25.391,42.480
1584599221.993,-23.438,21.484,22.949,-136.230,7.812
1584599221.997,40.527,30.762,30.273,50.781,18.555
1584599222.001,71.289,30.762,30.273,192.383,9.277
1584599222.005,16.113,21.973,24.414,41.992,56.152
1584599222.009,-31.250,16.602,17.578,-142.578,102.051
1584599222.013,19.531,24.902,21.484,-17.578,25.391
1584599222.017,75.684,33.691,26.855,186.523,-11.719
1584599222.020,34.180,27.344,22.461,98.145,45.410
1584599222.024,-32.715,17.578,17.090,-123.535,43.945
1584599222.028,-1.953,23.438,20.996,-73.730,22.949
1584599222.032,65.918,35.645,26.367,158.691,37.598
1584599222.036,49.316,29.785,26.855,151.855,-2.441
1584599222.040,-21.973,17.090,24.414,-78.613,4.883
1584599222.044,-24.902,20.020,24.902,-124.023,19.531
1584599222.048,47.852,30.762,31.250,102.051,-8.789
1584599222.052,61.035,28.320,33.203,181.641,15.137
1584599222.056,-7.324,18.066,29.297,-23.438,13.184
1584599222.060,-31.250,15.625,29.785,-143.555,19.043
1584599222.063,37.109,23.438,33.203,41.992,77.637
1584599222.067,72.754,27.832,31.738,202.637,78.613
1584599222.071,19.043,19.043,26.367,54.688,55.664
1584599222.075,-34.180,10.742,22.949,-143.555,20.996
1584599222.079,7.812,19.043,27.344,-29.785,11.230
1584599222.083,66.895,27.832,28.320,177.734,-8.789
1584599222.087,36.621,24.414,24.414,111.816,12.207
1584599222.091,-27.832,16.113,19.531,-108.887,79.102
1584599222.095,-1.465,20.508,21.973,-83.984,28.320
1584599222.099,67.383,35.645,29.297,144.043,30.273
1584599222.102,53.223,33.691,29.297,158.691,74.219
1584599222.106,-14.648,20.508,20.508,-61.035,112.305
1584599222.110,-15.625,22.461,16.602,-122.559,107.422
1584599222.114,50.293,33.203,22.461,89.355,18.066
1584599222.118,68.848,37.598,25.391,190.918,8.789
1584599222.122,6.836,27.344,20.508,11.230,18.555
1584599222.126,-27.344,22.949,18.066,-136.230,21.484
1584599222.130,34.180,33.691,25.391,19.531,5.859
1584599222.134,69.336,38.086,30.273,190.918,54.199
1584599222.138,12.207,29.785,26.367,65.430,103.027
1584599222.142,-43.945,17.090,23.926,-134.766,45.898
1584599222.145,4.395,19.043,32.715,-39.551,14.648
1584599222.149,74.707,30.762,42.480,186.035,56.641
1584599222.153,44.434,27.832,37.109,133.789,75.684
1584599222.157,-40.527,17.578,23.926,-114.746,24.902
1584599222.161,-32.227,21.484,23.438,-121.094,21.973
1584599222.165,45.410,36.621,27.832,120.117,30.762
1584599222.169,40.039,37.109,28.320,161.621,25.879
1584599222.173,-32.227,18.555,26.855,-54.688,7.812
1584599222.177,-39.062,12.207,25.391,-134.766,-8.301
1584599222.181,30.273,27.832,30.273,63.965,34.180
1584599222.185,53.711,31.738,29.297,180.176,26.855
1584599222.188,-2.930,20.020,21.484,1.953,18.555
1584599222.192,-43.457,20.020,18.555,-159.668,38.086
1584599222.196,10.254,30.273,20.508,-10.742,23.926
1584599222.200,62.012,38.086,22.949,173.828,17.090
1584599222.204,24.414,35.645,20.020,70.801,14.160
1584599222.208,-34.668,22.949,18.066,-139.160,9.766
1584599222.212,5.859,26.367,24.414,-57.617,38.574
1584599222.216,74.219,38.574,30.762,172.852,38.574
1584599222.220,48.340,31.738,26.855,136.719,34.180
1584599222.224,-24.414,20.508,21.973,-95.703,23.926
1584599222.227,-17.090,25.879,25.879,-114.258,48.340
1584599222.231,54.688,35.645,30.273,119.141,33.203
1584599222.235,57.617,33.691,31.250,178.223,-8.301
1584599222.239,-10.742,22.461,27.832,-43.457,11.230
1584599222.243,-32.227,17.578,21.973,-149.414,17.090
1584599222.247,29.785,27.344,22.949,42.480,21.484
1584599222.251,61.523,32.715,27.344,181.641,25.879
1584599222.255,8.301,21.484,23.926,26.367,-20.020
1584599222.259,-36.133,14.648,17.578,-151.367,-8.301
1584599222.263,18.066,26.367,22.461,-16.113,40.039
1584599222.267,68.359,34.180,28.320,182.617,60.059
1584599222.270,19.043,21.484,25.391,80.078,71.777
1584599222.274,-44.434,11.230,21.484,-133.789,47.363
1584599222.278,-12.207,18.066,28.320,-81.543,-3.906
1584599222.282,56.152,29.785,37.109,142.578,15.137
1584599222.286,44.434,27.344,32.715,146.973,36.621
1584599222.290,-21.973,17.578,20.020,-86.914,23.438
1584599222.294,-19.531,23.926,17.578,-134.277,17.090
1584599222.298,46.875,37.109,24.414,94.238,16.113
1584599222.302,55.176,33.691,27.832,180.176,41.992
1584599222.306,-13.184,19.531,24.902,-20.020,19.531
1584599222.310,-31.738,15.137,23.926,-143.066,-0.488
1584599222.313,31.738,26.855,30.762,39.551,2.441
1584599222.317,52.734,28.320,31.738,189.453,5.371
1584599222.321,8.301,16.113,27.832,47.852,27.832
1584599222.325,-27.344,10.254,26.367,-138.672,12.207
1584599222.329,7.812,21.973,30.762,-34.180,-20.020
1584599222.333,57.617,33.691,31.738,165.527,29.785
1584599222.337,30.762,29.297,24.902,105.469,39.062
1584599222.341,-33.203,19.531,20.996,-114.258,17.090
1584599222.345,-6.836,21.484,26.855,-88.867,19.531
1584599222.349,64.453,30.273,35.156,146.484,36.133
1584599222.352,48.828,25.391,35.156,157.715,23.926
1584599222.356,-25.879,13.184,27.344,-70.801,-5.371
1584599222.360,-24.902,16.113,23.926,-128.906,46.387
1584599222.364,46.387,28.320,26.367,88.379,96.680
1584599222.368,51.758,25.391,26.367,175.781,82.520
1584599222.372,-11.719,15.137,25.391,-17.090,24.414
1584599222.376,-38.574,15.625,25.879,-146.484,60.547
1584599222.380,27.832,25.879,32.227,31.738,44.434
1584599222.384,66.895,34.180,37.109,188.477,41.016
1584599222.388,9.277,28.809,31.738,51.270,39.551
1584599222.392,-41.504,20.996,22.949,-147.461,-33.691
1584599222.395,0.977,25.391,24.414,-50.293,3.906
1584599222.399,60.547,32.715,29.785,170.898,33.691
1584599222.403,34.180,28.320,29.297,116.211,16.602
1584599222.407,-37.598,20.020,21.973,-119.141,40.527
1584599222.411,-25.879,24.902,17.090,-115.234,23.438
1584599222.415,52.246,38.086,25.879,118.164,40.527
1584599222.419,57.617,34.180,32.227,166.016,53.223
1584599222.423,-13.184,18.555,25.879,-50.781,7.812
1584599222.427,-28.809,18.066,19.531,-139.648,-13.184
1584599222.431,45.410,35.645,19.531,65.918,32.715
1584599222.435,69.824,40.039,20.996,183.594,50.293
1584599222.438,-0.977,21.973,17.578,4.395,54.199
1584599222.442,-44.434,10.742,16.113,-160.645,27.832
1584599222.446,13.672,18.066,21.484,-6.348,16.602
1584599222.450,68.848,24.414,26.855,187.012,-3.418
1584599222.454,26.367,17.090,21.973,73.242,-0.488
1584599222.458,-41.504,8.789,13.672,-147.949,56.152
1584599222.462,-8.789,17.090,15.137,-81.055,32.227
1584599222.466,59.570,30.762,20.996,145.996,10.742
1584599222.470,38.086,28.809,20.996,130.371,39.062
1584599222.474,-35.645,15.625,14.160,-106.445,34.668
1584599222.477,-26.367,17.090,18.555,-125.977,-7.812
1584599222.481,53.711,25.391,27.344,120.117,1.953
1584599222.485,57.617,21.973,25.391,175.781,47.852
1584599222.489,-16.113,17.090,13.672,-46.875,58.105
1584599222.493,-33.691,22.461,8.301,-148.926,67.871
1584599222.497,31.738,31.738,14.648,50.781,25.391
1584599222.501,53.223,32.227,20.020,179.199,-8.789
1584599222.505,-2.441,23.438,14.648,13.672,25.879
1584599222.509,-40.527,20.996,3.418,-156.738,36.621
1584599222.513,14.160,30.273,6.836,-10.742,7.324
1584599222.517,64.453,32.227,18.555,187.012,50.293
1584599222.520,26.855,19.043,21.484,86.914,78.613
1584599222.524,-35.645,12.695,15.625,-131.348,37.598
1584599222.528,-6.348,23.438,14.160,-77.637,62.988
1584599222.532,61.035,36.621,21.973,147.949,102.051
1584599222.536,44.922,32.227,23.438,135.742,14.160
1584599222.540,-28.809,20.508,14.160,-92.285,6.348
1584599222.544,-26.855,20.996,10.742,-123.047,61.523
1584599222.548,49.316,33.203,16.602,107.910,38.574
1584599222.552,56.152,31.738,15.137,179.199,27.344
1584599222.556,-12.207,17.090,11.719,-26.855,17.578
1584599222.560,-35.645,14.648,11.719,-150.879,17.090
1584599222.563,33.691,26.367,18.066,33.203,-10.254
1584599222.567,68.359,35.645,20.996,185.547,-19.043
1584599222.571,7.324,27.832,16.602,38.086,52.734
1584599222.575,-48.340,14.648,16.113,-146.484,53.711
1584599222.579,0.000,20.508,22.949,-22.949,38.574
1584599222.583,64.453,28.320,29.297,185.059,78.125
1584599222.587,30.762,21.973,24.414,107.910,50.293
1584599222.591,-36.133,17.578,12.695,-122.559,10.254
1584599222.595,-8.301,26.367,11.719,-89.355,-13.184
1584599222.599,61.523,35.156,24.414,149.414,15.137
1584599222.602,49.316,23.926,31.250,157.715,46.875
1584599222.606,-27.832,8.301,23.926,-77.148,18.066
1584599222.610,-32.715,17.578,18.555,-142.578,-11.719
1584599222.614,43.945,35.156,21.484,82.520,14.160
1584599222.618,69.824,35.156,20.508,189.941,35.645
1584599222.622,11.230,23.438,18.066,-0.977,33.203
1584599222.626,-27.832,17.578,21.484,-142.090,90.332
1584599222.630,19.531,24.414,28.809,20.996,40.039
1584599222.634,66.406,30.273,33.203,193.848,8.789
1584599222.638,27.344,21.484,28.320,71.289,95.215
1584599222.642,-34.180,13.184,19.043,-131.348,63.965
1584599222.645,3.906,30.273,17.578,-41.992,5.371
1584599222.649,66.406,45.410,17.578,166.016,20.508
1584599222.653,42.969,36.621,16.113,112.793,35.645
1584599222.657,-23.926,23.438,16.113,-113.281,17.090
1584599222.661,-9.277,22.461,22.949,-99.121,-14.648
1584599222.665,59.082,33.203,29.297,132.324,34.180
1584599222.669,55.176,35.156,25.391,165.039,50.781
1584599222.673,-12.695,27.344,16.602,-52.734,11.719
1584599222.677,-23.438,29.297,14.648,-131.348,29.297
1584599222.681,40.039,38.574,23.438,76.660,60.059
1584599222.685,59.082,36.133,28.809,190.918,-2.441
1584599222.688,0.488,25.879,27.832,9.277,-8.789
1584599222.692,-30.273,20.996,27.344,-141.602,13.672
1584599222.696,27.832,26.367,30.762,12.695,-9.766
1584599222.700,69.824,31.250,32.715,184.082,-12.207
1584599222.704,23.926,28.809,27.832,75.684,-11.719
1584599222.708,-29.297,22.461,23.926,-124.023,6.836
1584599222.712,7.812,30.273,22.949,-49.805,21.973
1584599222.716,71.289,40.527,24.414,168.945,-1.465
1584599222.720,51.270,31.738,24.414,137.207,27.832
1584599222.724,-20.020,20.020,16.602,-93.750,25.391
1584599222.727,-12.207,26.855,14.648,-105.469,41.992
1584599222.731,53.223,34.668,22.461,122.070,35.645
1584599222.735,54.688,33.203,23.926,173.828,25.391
1584599222.739,-6.836,23.438,17.578,-23.438,-2.930
1584599222.743,-20.508,17.578,18.555,-118.652,-56.152
1584599222.747,42.480,23.926,31.738,71.289,12.207
1584599222.751,56.641,26.855,30.762,188.965,28.320
1584599222.755,-4.883,24.414,18.555,16.113,12.207
1584599222.759,-36.621,22.949,17.578,-146.484,9.277
1584599222.763,20.020,36.621,21.484,-2.930,-15.625
1584599222.767,70.312,43.457,19.531,190.430,-5.371
1584599222.770,33.691,28.320,20.020,94.238,-13.184
1584599222.774,-29.785,12.207,25.391,-121.094,-12.695
1584599222.778,-0.488,15.625,30.273,-61.523,27.832
1584599222.782,68.359,29.297,31.738,166.504,44.922
1584599222.786,46.387,25.879,25.879,146.973,18.066
1584599222.790,-26.855,17.578,18.555,-88.379,12.207
1584599222.794,-17.090,23.438,19.043,-116.699,63.477
1584599222.798,57.617,33.691,25.391,117.676,31.738
1584599222.802,65.918,32.715,26.367,193.359,26.855
1584599222.806,2.441,20.020,22.949,-14.648,35.645
1584599222.810,-18.555,15.625,25.391,-130.371,35.156
1584599222.813,43.945,26.367,29.785,58.594,53.223
1584599222.817,79.102,34.668,24.902,198.730,45.898
1584599222.821,25.879,30.762,20.020,46.875,19.043
1584599222.825,-23.438,24.414,18.066,-131.836,49.805
1584599222.829,23.926,29.297,20.020,-10.254,70.801
1584599222.833,77.637,36.133,24.902,191.406,32.715
1584599222.837,38.574,29.785,20.020,106.934,49.316
1584599222.841,-28.809,23.438,11.719,-122.559,8.789
1584599222.845,0.000,32.227,16.113,-80.566,43.945
1584599222.849,78.125,40.527,24.902,156.250,84.473
1584599222.852,68.848,35.156,26.855,163.086,46.387
1584599222.856,-8.301,18.066,23.926,-56.152,6.348
1584599222.860,-12.695,18.066,22.949,-113.281,10.254
1584599222.864,52.246,32.227,25.391,93.262,31.738
1584599222.868,64.941,35.156,23.438,184.082,62.988
1584599222.872,6.348,25.879,19.043,-10.254,68.359
1584599222.876,-29.297,20.020,17.090,-145.020,76.172
1584599222.880,32.715,31.250,22.461,32.227,55.176
1584599222.884,71.777,38.574,23.926,193.848,-1.953
1584599222.888,19.043,35.156,14.648,54.199,2.930
1584599222.892,-23.926,26.367,10.742,-137.695,66.406
1584599222.895,26.855,27.344,20.996,-31.250,81.055
1584599222.899,78.125,30.762,32.227,190.918,38.574
1584599222.903,35.156,25.391,29.785,130.859,3.418
1584599222.907,-32.227,20.996,19.043,-114.258,-0.488
1584599222.911,-4.883,27.344,18.066,-97.168,10.742
1584599222.915,73.242,36.621,26.367,145.508,10.742
1584599222.919,59.570,31.250,26.855,169.434,3.418
1584599222.923,-16.113,16.602,21.973,-58.105,24.414
1584599222.927,-23.438,15.137,20.996,-132.812,30.273
1584599222.931,43.457,30.273,22.949,79.102,0.000
1584599222.935,66.406,31.250,23.438,192.871,-12.695
1584599222.938,7.812,14.648,22.949,13.672,23.926
1584599222.942,-31.738,5.859,20.508,-146.484,29.785
1584599222.946,19.531,16.113,22.949,0.977,40.527
1584599222.950,59.570,26.855,24.902,180.664,29.785
1584599222.954,18.555,21.484,21.484,72.754,11.719
1584599222.958,-30.762,16.602,14.648,-137.695,0.000
1584599222.962,3.906,24.414,14.648,-57.617,-38.086
1584599222.966,61.523,30.273,17.578,161.621,-9.766
1584599222.970,38.086,21.973,17.090,122.559,61.523
1584599222.974,-24.414,5.859,15.625,-103.516,67.383
1584599222.977,-13.184,6.836,16.602,-105.957,27.344
1584599222.981,52.246,20.996,20.508,127.930,15.137
1584599222.985,49.316,23.926,17.578,165.039,17.090
1584599222.989,-20.020,15.625,13.184,-48.340,-18.555
1584599222.993,-27.344,12.695,14.160,-131.836,2.930
1584599222.997,44.434,25.391,17.578,64.941,8.789
1584599223.001,67.871,27.832,20.020,187.988,17.578
1584599223.005,4.883,18.066,16.602,14.648,20.020
1584599223.009,-36.621,11.719,15.625,-150.391,1.465
1584599223.013,21.973,19.531,23.438,-2.441,31.738
1584599223.017,72.266,33.203,23.926,192.871,41.016
1584599223.020,33.203,29.785,18.066,100.586,1.465
1584599223.024,-30.273,16.602,14.648,-120.605,-7.324
1584599223.028,1.953,19.531,17.578,-68.848,17.090
1584599223.032,71.777,33.203,24.414,159.180,3.906
1584599223.036,54.199,28.809,27.344,153.809,28.809
1584599223.040,-14.160,19.043,19.531,-73.242,16.602
1584599223.044,-11.719,27.344,9.766,-109.863,17.090
1584599223.048,55.176,40.527,15.137,124.512,14.160
1584599223.052,61.523,34.180,20.996,194.336,39.551
1584599223.056,-2.930,17.090,20.996,-22.461,-3.906
1584599223.060,-27.344,11.230,23.438,-137.207,-79.102
1584599223.063,39.062,22.461,28.320,56.152,-20.020
1584599223.067,75.684,27.344,27.344,199.707,37.109
1584599223.071,17.090,14.160,21.973,38.086,71.289
1584599223.075,-29.297,11.230,17.578,-144.531,22.461
1584599223.079,22.461,25.879,21.973,-9.766,-1.465
1584599223.083,69.824,33.203,27.344,190.430,54.688
1584599223.087,24.902,22.949,23.438,101.074,41.992
1584599223.091,-37.598,10.742,13.672,-122.559,3.418
1584599223.095,-8.301,17.090,12.207,-83.496,8.301
1584599223.099,62.012,23.438,21.973,153.809,-21.484
1584599223.102,47.852,15.137,26.367,155.762,6.348
1584599223.106,-27.832,5.371,20.508,-83.496,11.719
1584599223.110,-27.344,8.789,20.508,-130.859,15.137
1584599223.114,44.434,20.996,27.344,93.750,66.895
1584599223.118,56.152,22.949,28.320,173.828,64.941
1584599223.122,-4.883,19.043,22.461,-21.973,34.668
1584599223.126,-27.344,19.043,16.602,-147.461,-15.137
1584599223.130,34.180,26.855,19.043,30.273,30.273
1584599223.134,73.242,31.250,22.949,194.336,113.281
1584599223.138,23.438,27.832,15.625,54.199,84.961
1584599223.142,-27.344,22.461,7.324,-140.137,53.223
1584599223.145,18.066,24.414,13.184,-28.809,57.617
1584599223.149,79.102,32.715,19.531,189.453,50.293
1584599223.153,42.969,31.738,11.719,123.047,-24.902
1584599223.157,-37.598,19.043,7.812,-114.258,-26.855
1584599223.161,-20.508,12.207,17.578,-93.750,-8.789
1584599223.165,56.152,20.020,31.738,140.137,13.184
1584599223.169,54.199,22.949,34.180,165.527,58.594
1584599223.173,-14.160,15.137,23.926,-55.176,36.621
1584599223.177,-21.484,17.578,19.531,-126.465,32.715
1584599223.181,47.363,25.879,21.973,89.355,38.574
1584599223.185,66.895,25.879,22.949,202.148,44.434
1584599223.188,10.254,15.137,19.043,15.137,37.109
1584599223.192,-25.879,3.418,18.066,-138.672,10.742
1584599223.196,23.926,8.789,25.391,19.531,53.711
1584599223.200,65.430,15.625,28.809,195.801,98.633
1584599223.204,21.484,4.883,23.926,73.242,46.387
1584599223.208,-31.250,-7.324,16.602,-141.113,20.508
1584599223.212,14.648,5.859,18.066,-51.758,45.898
1584599223.216,78.613,24.414,25.391,176.758,73.730
1584599223.220,44.434,19.531,21.973,135.254,68.359
1584599223.224,-30.762,2.441,16.602,-104.004,-7.812
1584599223.227,-18.066,5.859,22.461,-112.305,-8.301
1584599223.231,53.711,19.531,29.785,125.000,37.598
1584599223.235,53.711,19.531,23.926,168.945,32.715
1584599223.239,-9.277,7.324,16.113,-41.504,17.578
1584599223.243,-19.531,4.395,19.531,-122.070,24.902
1584599223.247,43.457,19.043,22.461,71.289,53.711
1584599223.251,64.941,28.320,21.973,190.430,45.410
1584599223.255,4.883,20.508,16.602,16.602,38.574
1584599223.259,-36.133,12.207,14.648,-151.855,3.418
1584599223.263,24.902,20.996,20.996,-0.488,30.273
1584599223.267,76.660,28.809,25.879,190.918,51.758
1584599223.270,30.273,22.461,21.484,82.031,8.789
1584599223.274,-31.250,14.648,15.137,-128.418,46.875
1584599223.278,4.883,14.648,17.578,-59.082,86.426
1584599223.282,67.871,20.020,25.391,168.457,33.203
1584599223.286,47.363,19.531,23.926,149.414,54.688
1584599223.290,-25.391,9.277,17.578,-74.707,76.172
1584599223.294,-21.484,9.277,20.020,-102.539,23.926
1584599223.298,57.617,21.484,28.809,120.605,-10.742
1584599223.302,69.824,19.531,26.855,190.430,0.488
1584599223.306,0.488,9.766,19.531,-23.438,71.289
1584599223.310,-28.809,7.812,17.578,-139.160,66.895
1584599223.313,36.133,23.438,21.484,51.270,-3.418
1584599223.317,70.312,35.645,22.949,192.871,24.414
1584599223.321,11.719,25.879,20.020,41.504,19.531
1584599223.325,-29.297,12.695,17.578,-131.836,7.324
1584599223.329,24.414,11.719,27.344,0.488,-34.180
1584599223.333,72.754,17.578,36.133,202.637,-26.855
1584599223.337,31.250,14.648,28.320,114.746,49.805
1584599223.341,-37.109,7.812,17.090,-122.559,70.312
1584599223.345,-7.324,13.184,17.090,-80.078,77.148
1584599223.349,72.754,17.090,24.902,160.156,3.906
1584599223.352,62.988,8.789,28.320,165.039,-27.832
1584599223.356,-15.625,-2.441,20.508,-74.707,19.531
1584599223.360,-27.344,1.953,19.043,-128.906,29.785
1584599223.364,46.875,21.484,25.879,104.004,35.156
1584599223.368,70.801,24.414,26.367,196.289,11.719
1584599223.372,1.465,6.836,20.996,-4.883,5.371
1584599223.376,-28.320,-2.441,19.043,-138.184,15.137
1584599223.380,39.551,8.789,23.926,47.363,-3.906
1584599223.384,68.848,12.695,24.902,206.055,-2.441
1584599223.388,9.277,-2.930,20.996,47.852,-16.113
1584599223.392,-45.898,-9.766,19.531,-145.996,35.645
1584599223.395,4.883,-1.953,22.461,-28.809,75.195
1584599223.399,70.801,5.859,27.832,186.523,21.484
1584599223.403,37.598,1.465,26.367,116.699,3.418
1584599223.407,-25.391,-11.719,25.879,-113.281,36.621
1584599223.411,-3.418,-7.324,32.227,-81.055,30.273
1584599223.415,64.453,8.789,38.086,154.785,12.695
1584599223.419,53.223,5.859,32.715,166.992,46.875
1584599223.423,-21.973,-5.859,23.926,-67.871,66.895
1584599223.427,-32.715,-1.465,24.902,-133.789,-0.977
1584599223.431,38.086,12.207,28.320,84.961,-13.184
1584599223.435,64.941,17.578,29.297,200.195,54.199
1584599223.438,0.977,10.254,27.344,6.836,73.730
1584599223.442,-38.086,7.324,23.438,-155.273,28.320
1584599223.446,21.484,18.555,29.297,13.184,7.812
1584599223.450,65.430,25.391,35.156,188.477,30.273
1584599223.454,21.484,16.602,32.227,64.941,23.438
1584599223.458,-41.016,9.766,24.414,-139.160,61.035
1584599223.462,-7.812,20.508,25.879,-50.781,97.168
1584599223.466,59.082,30.762,34.180,169.922,73.730
1584599223.470,40.527,23.926,34.668,128.906,34.668
1584599223.474,-33.203,10.254,29.785,-102.539,2.930
1584599223.477,-24.902,17.090,30.762,-116.211,32.227
1584599223.481,50.781,34.180,31.250,112.305,83.984
1584599223.485,54.688,36.133,27.344,162.598,82.031
1584599223.489,-9.277,23.926,22.461,-51.758,58.594
1584599223.493,-25.879,20.020,21.973,-144.531,39.551
1584599223.497,36.621,37.109,27.832,58.105,3.418
1584599223.501,58.594,41.992,27.832,179.688,30.273
1584599223.505,0.000,24.414,19.531,7.812,21.973
1584599223.509,-31.738,18.066,18.066,-144.531,19.043
1584599223.513,17.090,28.320,24.414,2.441,59.570
1584599223.517,57.129,33.203,29.297,181.152,11.719
1584599223.520,16.602,26.367,25.879,75.684,-28.320
1584599223.524,-40.039,17.578,20.020,-127.441,-26.855
1584599223.528,1.953,26.855,23.438,-55.176,-46.387
1584599223.532,71.289,40.527,28.809,166.016,-22.461
1584599223.536,46.387,35.645,22.461,135.254,78.613
1584599223.540,-26.855,24.902,13.184,-104.004,67.383
1584599223.544,-19.531,26.855,17.578,-122.070,44.922
1584599223.548,49.805,35.156,26.367,115.234,20.020
1584599223.552,45.898,38.574,21.973,169.434,-1.465
1584599223.556,-22.949,28.809,15.137,-49.316,74.219
1584599223.560,-33.203,21.973,18.066,-148.438,99.609
1584599223.563,38.086,33.203,20.020,53.223,78.613
1584599223.567,67.383,38.086,21.484,192.383,1.953
1584599223.571,7.324,24.414,20.020,28.809,0.977
1584599223.575,-35.645,16.113,17.090,-146.973,47.852
1584599223.579,24.902,27.832,22.949,-6.836,55.176
1584599223.583,80.566,31.738,31.250,196.289,67.871
1584599223.587,39.062,21.484,32.227,105.957,75.684
1584599223.591,-25.879,15.625,28.809,-109.863,59.570
1584599223.595,3.418,24.414,30.762,-60.547,52.734
1584599223.599,69.824,34.180,34.668,155.273,42.480
1584599223.602,51.758,31.250,29.785,146.484,62.012
1584599223.606,-16.602,20.020,20.996,-76.660,34.180
1584599223.610,-17.090,19.531,21.484,-120.117,-12.695
1584599223.614,53.711,28.809,25.879,105.957,50.293
1584599223.618,67.383,28.809,25.879,187.988,31.250
1584599223.622,1.953,16.602,22.949,-17.090,2.441
1584599223.626,-25.879,11.230,20.996,-141.602,32.227
1584599223.630,39.062,21.484,24.902,43.945,42.480
1584599223.634,74.707,25.391,28.320,197.266,22.949
1584599223.638,16.113,20.020,23.926,56.152,28.320
1584599223.642,-35.156,14.648,16.602,-136.719,9.277
1584599223.645,11.230,20.996,20.020,-35.156,-33.203
1584599223.649,69.336,29.785,27.832,177.246,-29.297
1584599223.653,37.109,21.973,27.344,116.211,5.371
1584599223.657,-26.855,10.254,21.484,-107.910,41.992
1584599223.661,-4.395,15.137,21.973,-82.520,-0.488
1584599223.665,65.918,27.832,27.832,153.320,33.691
1584599223.669,58.594,27.832,23.926,169.922,35.156
1584599223.673,-14.160,15.625,17.090,-63.965,-24.902
1584599223.677,-22.949,14.648,19.531,-130.371,-0.977
1584599223.681,42.480,27.344,26.855,85.938,-3.906
1584599223.685,62.988,31.250,29.785,189.453,2.441
1584599223.688,-0.488,18.555,24.414,1.465,50.293
1584599223.692,-37.109,14.648,21.973,-151.367,45.410
1584599223.696,23.926,26.855,27.832,17.578,3.418
1584599223.700,65.918,32.227,34.668,189.453,1.465
1584599223.704,19.043,22.949,31.738,61.035,19.043
1584599223.708,-31.250,14.648,25.391,-138.184,-1.953
1584599223.712,12.695,23.926,25.391,-41.504,9.277
1584599223.716,72.754,34.668,31.738,178.223,27.344
1584599223.720,38.574,25.391,33.203,127.930,51.270
1584599223.724,-33.203,13.184,26.855,-100.098,62.012
1584599223.727,-12.207,15.137,27.344,-88.379,53.711
1584599223.731,60.059,18.555,33.691,141.113,55.176
1584599223.735,57.129,12.695,35.645,165.527,59.570
1584599223.739,-10.742,0.488,28.809,-50.781,42.480
1584599223.743,-23.438,-4.395,25.879,-128.418,20.020
1584599223.747,44.922,5.371,30.762,79.590,25.879
1584599223.751,66.895,9.766,29.785,194.824,38.086
1584599223.755,5.371,-1.465,21.484,14.648,12.207
1584599223.759,-31.250,-10.742,16.602,-145.508,-11.719
1584599223.763,21.973,1.953,21.973,9.277,30.762
1584599223.767,64.453,17.090,25.879,195.312,20.020
1584599223.770,20.508,11.230,20.996,86.914,-32.227
1584599223.774,-41.016,-0.488,14.648,-131.836,-5.371
1584599223.778,-2.441,5.859,17.090,-64.941,42.969
1584599223.782,65.430,17.578,20.020,162.598,28.809
1584599223.786,46.387,15.625,17.090,135.742,7.812
1584599223.790,-25.879,-0.488,11.719,-93.262,20.996
1584599223.794,-19.043,-4.395,14.648,-106.934,12.695
1584599223.798,56.152,8.301,21.973,125.000,-39.551
1584599223.802,61.035,9.277,23.926,182.617,-11.719
1584599223.806,-5.371,-0.977,20.508,-27.344,35.645
1584599223.810,-21.973,-5.371,19.043,-134.277,-0.488
1584599223.813,44.434,4.883,25.879,65.918,-7.812
1584599223.817,70.801,10.742,26.855,202.148,12.207
1584599223.821,13.672,0.000,21.484,33.691,19.531
1584599223.825,-28.809,-4.883,16.113,-143.555,30.762
1584599223.829,23.926,5.859,20.508,-13.672,6.348
1584599223.833,75.684,8.789,23.926,185.059,51.270
1584599223.837,35.645,0.977,17.578,98.633,18.555
1584599223.841,-24.902,-4.395,11.230,-121.582,-7.812
1584599223.845,6.348,1.465,19.043,-65.430,49.316
1584599223.849,71.289,10.742,26.367,167.969,35.156
1584599223.852,52.734,8.301,24.414,149.414,20.996
1584599223.856,-16.113,-0.488,20.020,-83.984,38.574
1584599223.860,-15.137,0.000,20.020,-119.629,10.254
1584599223.864,55.664,10.742,26.367,112.305,14.160
1584599223.868,64.453,9.766,28.320,183.594,-17.578
1584599223.872,-6.348,1.465,25.391,-29.785,2.930
1584599223.876,-29.297,0.488,25.879,-145.020,49.316
1584599223.880,37.109,10.254,30.762,45.898,28.320
1584599223.884,68.848,14.648,35.645,198.730,49.316
1584599223.888,12.695,2.930,31.738,48.340,29.297
1584599223.892,-37.598,-6.348,27.832,-140.625,7.324
1584599223.895,12.207,5.859,31.738,-24.902,45.898
1584599223.899,69.824,20.996,33.691,182.617,2.441
1584599223.903,36.133,19.043,32.227,113.770,-34.180
1584599223.907,-25.879,11.719,27.832,-107.910,4.395
1584599223.911,0.000,12.695,27.344,-77.637,24.414
1584599223.915,69.336,26.367,31.738,149.902,54.688
1584599223.919,57.617,28.809,30.273,163.574,35.645
1584599223.923,-10.742,18.555,25.391,-53.711,-20.508
1584599223.927,-17.578,20.020,22.949,-116.211,-26.367
1584599223.931,49.805,32.715,27.832,95.215,-20.020
1584599223.935,65.430,36.133,28.320,191.895,62.988
1584599223.938,2.441,26.367,21.973,1.465,51.758
1584599223.942,-25.391,23.926,21.484,-136.719,25.879
1584599223.946,38.574,38.086,28.809,38.086,99.609
1584599223.950,83.008,44.434,27.832,204.590,24.414
1584599223.954,28.809,34.180,18.555,62.500,-32.715
1584599223.958,-31.250,23.438,15.137,-131.836,35.645
1584599223.962,13.184,30.273,20.020,-29.297,81.543
1584599223.966,72.754,41.992,26.367,178.711,63.965
1584599223.970,41.992,36.133,23.926,127.930,38.086
1584599223.974,-24.902,25.391,16.602,-104.492,40.527
1584599223.977,-9.277,31.738,20.996,-99.609,16.113
1584599223.981,59.082,42.969,29.785,136.719,0.000
1584599223.985,57.617,40.527,24.902,169.922,-2.441
1584599223.989,-12.207,29.785,16.602,-49.805,-9.277
1584599223.993,-25.391,28.809,17.578,-127.441,57.129
1584599223.997,47.363,38.574,26.367,86.426,6.836
1584599224.001,70.801,40.039,26.855,196.289,-9.766
1584599224.005,4.883,28.809,19.531,15.137,52.246
1584599224.009,-34.180,21.973,16.113,-142.090,40.039
1584599224.013,23.438,34.180,21.973,7.324,51.758
1584599224.017,64.453,40.039,25.391,188.965,81.543
1584599224.020,17.090,30.762,22.949,72.266,51.758
1584599224.024,-39.551,24.414,19.043,-133.301,32.227
1584599224.028,0.488,32.227,19.043,-50.293,61.523
1584599224.032,65.430,41.992,25.879,169.434,66.406
1584599224.036,39.062,38.574,23.438,130.859,69.824
1584599224.040,-28.320,27.344,16.602,-98.633,42.969
1584599224.044,-17.090,25.879,18.555,-109.863,-30.273
1584599224.048,51.270,36.621,27.832,123.047,-18.555
1584599224.052,49.805,35.156,29.297,177.246,0.000
1584599224.056,-17.578,24.902,23.926,-38.086,48.340
1584599224.060,-29.297,24.414,22.461,-136.719,2.441
1584599224.063,39.062,37.109,25.879,61.523,-10.742
1584599224.067,65.918,42.969,31.250,190.430,47.363
1584599224.071,9.766,32.715,28.809,28.320,70.801
1584599224.075,-32.227,22.461,25.391,-142.090,64.941
1584599224.079,20.020,33.691,31.738,-5.371,33.203
1584599224.083,72.266,44.434,37.109,187.988,25.391
1584599224.087,32.227,32.715,31.250,90.332,-22.949
1584599224.091,-29.785,20.020,23.926,-128.906,-18.555
1584599224.095,-0.488,28.809,27.832,-64.453,54.199
1584599224.099,62.500,39.551,34.180,162.598,36.133
1584599224.102,40.527,33.691,27.344,140.137,-42.969
1584599224.106,-31.738,20.508,18.066,-87.891,-41.504
1584599224.110,-26.855,23.926,21.484,-124.512,41.016
1584599224.114,46.875,37.109,28.320,107.422,51.270
1584599224.118,56.152,36.621,26.855,186.035,-1.953
1584599224.122,-13.184,27.344,22.949,-20.996,33.691
1584599224.126,-37.109,24.902,18.555,-140.137,70.801
1584599224.130,31.738,31.738,22.949,47.852,33.203
1584599224.134,65.918,32.227,30.273,196.777,28.809
1584599224.138,11.719,16.602,26.855,43.945,25.879
1584599224.142,-33.203,7.812,21.973,-141.113,-16.602
1584599224.145,15.137,18.555,28.809,-7.324,4.395
1584599224.149,72.266,31.250,33.691,194.336,38.086
1584599224.153,37.109,22.461,28.320,100.098,62.500
1584599224.157,-30.273,13.672,23.926,-121.094,63.965
1584599224.161,-4.883,21.484,28.320,-77.637,22.461
1584599224.165,62.988,32.715,32.227,156.738,60.059
1584599224.169,53.711,30.762,29.785,163.086,50.781
1584599224.173,-14.160,21.973,26.367,-62.012,14.160
1584599224.177,-20.508,24.902,24.414,-114.258,70.312
1584599224.181,50.293,36.133,30.762,104.980,68.359
1584599224.185,66.895,40.039,34.180,195.801,60.059
1584599224.188,5.371,29.297,26.855,0.977,91.309
1584599224.192,-21.484,23.438,22.461,-125.488,40.039
1584599224.196,37.598,33.691,25.879,46.875,8.301
1584599224.200,74.219,40.039,27.832,201.660,43.945
1584599224.204,20.996,31.738,20.996,64.453,34.668
1584599224.208,-30.273,22.949,18.555,-130.371,34.668
1584599224.212,17.578,25.879,24.414,-26.367,18.066
1584599224.216,78.125,34.180,31.250,180.664,-52.246
1584599224.220,44.434,28.809,30.273,123.047,-57.129
1584599224.224,-24.902,14.648,23.438,-102.539,-34.668
1584599224.227,-8.301,18.066,24.902,-90.332,11.719
1584599224.231,60.547,30.762,31.738,141.113,22.461
1584599224.235,57.617,27.832,30.762,166.504,-19.043
1584599224.239,-12.695,15.137,27.832,-47.852,9.277
1584599224.243,-19.043,11.719,29.297,-127.441,24.902
1584599224.247,53.711,24.414,34.180,71.289,10.742
1584599224.251,72.266,32.715,34.668,187.012,-11.230
1584599224.255,10.742,20.996,25.391,6.348,15.625
1584599224.259,-23.926,14.648,19.043,-146.484,38.574
1584599224.263,34.668,25.879,24.414,16.602,11.230
1584599224.267,76.172,28.809,26.855,194.336,66.406
1584599224.270,26.367,12.695,25.391,70.312,60.547
1584599224.274,-32.227,-0.488,25.879,-137.207,-13.184
1584599224.278,6.836,7.812,29.297,-50.293,-34.668
1584599224.282,72.266,15.625,35.156,178.223,48.340
1584599224.286,44.922,9.277,34.180,134.277,38.574
1584599224.290,-22.461,4.395,26.855,-103.516,16.113
1584599224.294,-7.812,9.277,27.344,-105.957,30.273
1584599224.298,60.059,20.508,33.691,127.441,41.504
1584599224.302,60.547,20.020,30.762,173.340,68.359
1584599224.306,-4.395,8.301,24.902,-43.457,42.969
1584599224.310,-17.578,11.230,25.879,-133.789,7.812
1584599224.313,47.852,24.414,32.227,75.195,20.996
1584599224.317,70.801,27.344,32.715,200.684,59.570
1584599224.321,10.742,18.066,29.297,26.855,36.621
1584599224.325,-27.832,5.371,29.297,-132.812,39.551
1584599224.329,28.809,7.324,32.227,10.742,89.355
1584599224.333,77.637,16.113,34.180,193.848,71.289
1584599224.337,28.320,15.625,29.785,88.379,46.875
1584599224.341,-30.762,8.301,25.879,-121.582,27.344
1584599224.345,4.883,9.766,30.273,-57.129,11.719
1584599224.349,69.824,15.625,36.621,163.086,21.973
1584599224.352,48.828,12.695,35.645,145.508,20.996
1584599224.356,-19.531,6.348,28.809,-81.543,23.926
1584599224.360,-10.254,13.672,28.809,-109.375,16.602
1584599224.364,58.594,27.832,33.691,118.164,43.945
1584599224.368,63.965,26.367,30.273,182.129,32.715
1584599224.372,-3.418,15.137,21.484,-29.297,25.879
1584599224.376,-23.438,8.301,20.020,-134.766,-6.836
1584599224.380,38.574,10.742,26.367,54.199,-5.371
1584599224.384,67.383,14.648,28.809,188.477,63.965
1584599224.388,11.230,6.348,28.809,35.645,66.895
1584599224.392,-37.109,-5.371,25.879,-145.020,15.625
1584599224.395,11.230,0.488,29.297,-20.508,33.691
1584599224.399,68.359,10.254,35.156,187.012,50.781
1584599224.403,33.691,2.441,33.203,105.469,27.344
1584599224.407,-35.156,-8.789,28.809,-120.605,10.254
1584599224.411,-11.719,2.441,31.738,-78.613,-9.277
1584599224.415,60.547,13.672,37.109,150.879,-6.348
1584599224.419,47.852,6.836,33.203,147.461,-7.812
1584599224.423,-25.391,-6.348,26.367,-83.496,11.230
1584599224.427,-23.438,-10.254,27.344,-125.000,49.316
1584599224.431,52.734,0.977,35.156,100.098,2.441
1584599224.435,67.383,1.465,35.645,181.152,30.273
1584599224.438,-2.441,-12.207,31.250,-19.043,63.965
1584599224.442,-34.668,-7.324,28.809,-148.438,6.348
1584599224.446,31.250,10.254,31.738,36.133,12.207
1584599224.450,70.312,18.555,35.645,199.219,41.504
1584599224.454,16.113,14.160,30.273,57.129,31.738
1584599224.458,-35.645,8.301,23.926,-138.672,-0.977
1584599224.462,8.789,17.090,26.367,-29.785,9.766
1584599224.466,67.871,25.879,30.273,178.223,33.203
1584599224.470,39.551,17.578,27.344,115.234,54.688
1584599224.474,-22.949,1.953,23.926,-107.910,-34.180
1584599224.477,-3.418,4.883,27.344,-87.891,-83.008
1584599224.481,62.988,12.695,32.227,148.438,15.137
1584599224.485,51.270,8.301,31.250,168.457,83.008
1584599224.489,-20.020,-1.465,23.926,-67.871,45.898
1584599224.493,-24.902,-4.883,20.996,-133.301,57.129
1584599224.497,48.340,5.371,27.832,88.379,82.520
1584599224.501,70.312,9.766,30.762,190.430,-9.766
1584599224.505,8.301,-0.488,24.902,3.906,9.277
1584599224.509,-28.320,-6.836,18.555,-142.090,-2.930
1584599224.513,30.273,4.395,27.344,20.020,50.293
1584599224.517,70.801,15.137,30.762,195.312,58.105
1584599224.520,19.043,12.695,23.926,78.125,27.832
1584599224.524,-37.598,5.859,20.020,-133.301,70.312
1584599224.528,2.441,13.184,22.461,-53.711,31.738
1584599224.532,65.430,28.320,28.320,166.504,45.898
1584599224.536,43.457,26.367,27.344,127.930,94.238
1584599224.540,-19.531,17.578,25.391,-95.703,69.824
1584599224.544,-8.301,22.461,27.344,-95.703,43.945
1584599224.548,56.152,30.762,34.668,139.160,35.645
1584599224.552,53.711,27.344,35.645,180.664,19.531
1584599224.556,-17.090,16.113,24.902,-41.992,17.578
1584599224.560,-32.715,15.137,25.391,-133.789,15.137
1584599224.563,37.598,29.297,33.203,73.730,48.340
1584599224.567,62.500,33.691,34.668,198.730,35.156
1584599224.571,3.418,20.508,29.297,13.184,19.043
1584599224.575,-38.086,13.672,25.391,-157.227,48.340
1584599224.579,15.137,26.367,29.785,1.465,8.301
1584599224.583,69.824,34.668,34.180,196.777,-1.465
1584599224.587,25.879,24.902,31.738,84.961,19.043
1584599224.591,-45.410,18.555,22.461,-144.043,3.418
1584599224.595,-13.184,30.273,22.949,-76.660,26.367
1584599224.599,58.105,39.551,31.250,154.785,55.664
1584599224.602,34.668,37.109,28.320,123.047,36.133
1584599224.606,-43.457,29.297,21.973,-111.816,30.273
1584599224.610,-34.668,29.785,21.973,-128.906,55.664
1584599224.614,41.992,38.574,25.391,102.051,31.250
1584599224.618,42.969,36.621,27.832,161.621,4.395
1584599224.622,-24.414,25.391,22.461,-50.781,5.371
1584599224.626,-41.992,19.531,23.438,-157.715,22.949
1584599224.630,23.438,24.414,31.738,43.457,-2.930
1584599224.634,58.105,27.832,37.109,187.500,-57.129
1584599224.638,4.883,25.879,32.227,28.320,-24.414
1584599224.642,-48.828,23.438,20.996,-155.762,51.758
1584599224.645,-3.418,29.297,24.414,-34.180,35.645
1584599224.649,54.688,37.598,31.738,163.574,-16.113
1584599224.653,23.438,37.109,28.809,87.402,-11.719
1584599224.657,-35.156,25.879,23.926,-123.535,-8.301
1584599224.661,-8.789,28.809,25.879,-79.590,38.086
1584599224.665,53.711,40.527,34.180,142.090,132.324
1584599224.669,34.180,38.086,31.738,140.137,68.359
1584599224.673,-30.273,26.855,21.973,-85.449,4.395
1584599224.677,-25.879,28.809,20.996,-134.277,57.129
1584599224.681,40.527,40.039,26.855,90.332,8.789
1584599224.685,57.129,41.992,30.273,178.711,-2.930
1584599224.688,-10.254,31.250,26.855,-19.531,7.812
1584599224.692,-39.062,23.926,25.879,-147.949,-7.812
1584599224.696,25.391,37.109,32.715,34.668,50.781
1584599224.700,60.547,44.434,38.574,190.430,66.406
1584599224.704,10.742,33.203,36.621,48.340,74.707
1584599224.708,-35.156,23.926,30.273,-143.555,24.902
1584599224.712,10.742,33.203,30.762,-38.086,-8.789
1584599224.716,64.941,43.945,33.691,175.293,38.574
1584599224.720,27.832,36.133,30.273,106.934,0.977
1584599224.724,-37.598,21.973,27.344,-121.094,-10.254
1584599224.727,-13.184,28.809,33.203,-90.332,43.457
1584599224.731,51.270,41.504,40.039,147.461,41.992
1584599224.735,35.156,38.086,33.691,159.668,34.668
1584599224.739,-32.715,27.832,20.508,-77.637,38.086
1584599224.743,-31.738,31.250,16.602,-141.113,21.484
1584599224.747,43.945,41.504,27.344,83.008,-9.277
1584599224.751,62.012,35.645,33.203,188.477,7.324
1584599224.755,-3.418,20.508,30.273,-1.465,-12.207
1584599224.759,-43.945,18.555,27.832,-150.879,4.883
1584599224.763,8.301,32.715,31.738,7.324,47.363
1584599224.767,49.316,37.109,31.738,172.363,57.129
1584599224.770,3.418,25.879,24.902,43.457,66.895
1584599224.774,-46.387,19.531,22.461,-145.996,86.426
1584599224.778,-7.812,29.297,25.879,-53.711,76.172
1584599224.782,49.316,37.598,33.203,154.297,48.340
1584599224.786,23.926,31.738,31.250,108.887,-3.418
1584599224.790,-41.992,22.461,21.973,-119.629,28.320
1584599224.794,-28.809,26.855,22.461,-110.352,33.691
1584599224.798,38.574,38.574,26.367,119.629,-0.977
1584599224.802,37.598,36.621,25.391,150.391,32.715
1584599224.806,-31.738,25.391,18.555,-65.918,47.852
1584599224.810,-37.598,24.414,15.625,-146.484,76.172
1584599224.813,40.039,33.691,24.414,60.059,80.566
1584599224.817,60.059,35.156,27.344,179.688,61.523
1584599224.821,-8.789,27.832,21.484,4.883,19.531
1584599224.825,-51.758,23.438,19.531,-160.645,7.324
1584599224.829,8.789,36.133,23.438,-10.254,-6.836
1584599224.833,65.430,46.387,23.926,182.617,-19.531
1584599224.837,25.391,38.574,23.438,83.496,20.020
1584599224.841,-32.227,26.367,21.484,-133.789,46.387
1584599224.845,-1.465,26.855,24.902,-65.430,49.316
1584599224.849,61.035,35.156,28.809,159.180,16.602
1584599224.852,42.969,36.133,23.438,130.859,-34.668
1584599224.856,-28.320,27.344,17.090,-102.051,-39.062
1584599224.860,-25.879,28.809,17.090,-126.465,27.344
1584599224.864,45.898,41.992,20.996,104.980,20.996
1584599224.868,50.781,40.527,17.578,167.480,-57.617
1584599224.872,-14.648,26.855,11.719,-40.527,-27.832
1584599224.876,-35.156,23.438,14.160,-144.043,20.020
1584599224.880,29.785,34.180,22.461,55.664,34.180
1584599224.884,64.941,35.645,30.762,203.613,3.418
1584599224.888,12.695,25.391,29.785,44.434,-11.719
1584599224.892,-35.645,20.020,20.996,-146.973,50.293
1584599224.895,13.184,30.762,24.414,-20.508,109.863
1584599224.899,64.453,40.039,30.273,173.828,52.734
1584599224.903,20.020,31.738,24.902,74.219,31.738
1584599224.907,-38.574,22.949,19.531,-141.602,53.711
1584599224.911,-8.301,27.344,24.902,-79.590,40.527
1584599224.915,55.176,34.668,32.227,148.926,7.324
1584599224.919,34.668,30.762,29.785,139.648,-37.109
1584599224.923,-40.039,20.996,22.461,-85.449,4.395
1584599224.927,-26.367,22.461,24.902,-121.094,-6.348
1584599224.931,54.688,31.250,34.180,113.281,10.254
1584599224.935,64.941,33.203,31.738,187.988,36.621
1584599224.938,-2.441,25.391,21.484,-25.879,-2.930
1584599224.942,-30.762,23.926,22.949,-141.602,-14.160
1584599224.946,27.832,34.668,31.250,39.062,30.273
1584599224.950,54.199,40.039,28.809,178.711,18.066
1584599224.954,1.465,34.180,25.391,35.156,-13.672
1584599224.958,-35.156,24.902,24.902,-142.090,-42.969
1584599224.962,16.602,32.227,25.391,-16.602,-23.926
1584599224.966,67.871,40.039,30.762,187.012,42.969
1584599224.970,30.273,34.180,28.320,112.305,85.449
1584599224.974,-35.645,26.367,20.996,-111.816,78.613
1584599224.977,-16.602,30.273,21.484,-89.355,51.758
1584599224.981,50.781,42.969,25.879,140.137,35.645
1584599224.985,43.457,38.086,27.832,165.527,52.246
1584599224.989,-24.414,18.555,23.926,-59.082,66.895
1584599224.993,-28.320,17.090,23.438,-131.348,27.344
1584599224.997,42.480,33.691,25.391,88.379,9.766
1584599225.001,56.641,36.621,25.879,187.988,7.812
1584599225.005,-9.766,23.926,19.531,-6.348,10.742
1584599225.009,-46.875,20.020,12.695,-155.762,17.090
1584599225.013,10.742,33.691,15.137,7.324,55.664
1584599225.017,60.547,41.016,19.531,182.617,41.504
1584599225.020,17.578,29.785,16.602,60.547,26.855
1584599225.024,-36.133,20.996,18.555,-138.672,32.227
1584599225.028,6.348,26.367,31.250,-34.668,31.250
1584599225.032,67.383,32.227,37.598,181.152,24.902
1584599225.036,39.551,26.367,31.738,117.676,41.504
1584599225.040,-36.133,19.043,23.926,-118.164,71.777
1584599225.044,-19.531,27.832,24.414,-108.887,42.480
1584599225.048,62.012,39.062,29.785,131.348,59.082
1584599225.052,55.176,34.180,29.297,162.109,20.996
1584599225.056,-17.090,22.949,24.414,-60.547,23.926
1584599225.060,-25.879,21.973,26.855,-134.277,65.918
1584599225.063,42.969,29.297,37.598,78.613,67.383
1584599225.067,66.406,26.855,41.992,196.777,42.480
1584599225.071,5.859,21.973,35.156,18.066,9.766
1584599225.075,-31.250,22.949,29.297,-142.578,9.766
1584599225.079,24.414,31.738,29.297,9.277,29.785
1584599225.083,70.312,36.621,30.273,192.871,23.926
1584599225.087,25.879,30.762,24.902,79.590,31.250
1584599225.091,-35.645,22.461,19.531,-133.789,84.961
1584599225.095,-0.488,26.367,22.949,-55.664,74.707
1584599225.099,64.453,36.133,26.367,164.062,51.758
1584599225.102,44.922,33.691,25.391,127.930,41.992
1584599225.106,-22.949,20.996,20.020,-91.797,33.691
1584599225.110,-15.625,20.020,21.484,-103.027,35.645
1584599225.114,57.129,34.668,30.273,128.906,54.688
1584599225.118,60.059,35.645,31.250,185.547,46.875
1584599225.122,-8.301,21.973,24.414,-36.133,17.578
1584599225.126,-28.809,15.625,21.973,-133.789,67.383
1584599225.130,38.574,24.902,26.367,61.035,88.867
1584599225.134,74.707,28.809,28.809,188.965,38.574
1584599225.138,15.625,17.578,23.438,33.691,-41.016
1584599225.142,-28.809,8.789,18.555,-137.695,-40.039
1584599225.145,21.484,13.672,27.832,-6.348,21.973
1584599225.149,68.848,21.973,38.086,190.918,86.914
1584599225.153,30.273,16.113,32.227,97.656,90.332
1584599225.157,-32.715,6.836,20.996,-131.348,15.625
1584599225.161,-1.465,13.672,22.949,-76.172,44.434
1584599225.165,69.336,21.973,30.273,162.109,63.965
1584599225.169,53.223,11.719,31.250,154.785,3.906
1584599225.173,-24.902,-4.883,25.879,-78.125,40.527
1584599225.177,-23.438,-9.766,28.809,-110.840,59.082
1584599225.181,55.664,0.488,37.109,118.164,-14.648
1584599225.185,61.035,3.906,32.715,182.129,-39.062
1584599225.188,-12.695,-8.301,23.926,-37.598,-51.758
1584599225.192,-36.621,-8.301,25.391,-156.250,-6.836
1584599225.196,34.180,9.277,33.691,46.387,0.977
1584599225.200,73.242,10.742,41.992,197.266,-60.059
1584599225.204,20.996,-4.395,40.527,50.293,32.715
1584599225.208,-28.320,-12.207,33.691,-135.742,39.551
1584599225.212,11.230,-4.883,31.250,-26.367,33.691
1584599225.216,68.359,6.836,30.762,175.293,22.461
1584599225.220,30.762,-1.465,27.832,101.562,-37.109
1584599225.224,-36.133,-17.578,21.973,-117.188,-7.812
1584599225.227,-7.324,-16.113,25.879,-78.125,66.406
1584599225.231,62.988,-9.277,35.645,153.320,111.816
1584599225.235,50.781,-12.695,36.621,151.367,45.898
1584599225.239,-24.414,-22.461,29.297,-73.242,-6.348
1584599225.243,-24.902,-25.391,25.879,-128.906,-28.809
1584599225.247,47.363,-15.625,31.250,88.379,-2.441
1584599225.251,57.129,-13.672,32.227,188.477,5.859
1584599225.255,-4.883,-21.973,27.344,-1.953,-12.695
1584599225.259,-35.156,-21.973,24.902,-141.602,38.574
1584599225.263,20.508,-8.301,27.832,25.391,37.109
1584599225.267,56.641,2.930,30.762,187.500,29.297
1584599225.270,7.812,-2.930,25.391,53.223,5.371
1584599225.274,-39.551,-8.301,17.578,-139.648,28.320
1584599225.278,2.930,0.488,20.996,-40.527,52.734
1584599225.282,61.035,9.277,30.762,167.969,15.137
1584599225.286,34.180,2.930,30.762,115.723,-16.113
1584599225.290,-31.250,-9.766,23.438,-106.934,0.000
1584599225.294,-13.672,-7.324,23.438,-93.750,70.312
1584599225.298,54.688,7.324,27.832,136.230,98.633
1584599225.302,51.758,9.277,26.367,170.410,46.387
1584599225.306,-16.602,-2.930,21.973,-55.176,25.391
1584599225.310,-28.320,0.977,21.484,-143.066,59.082
1584599225.313,42.480,17.090,25.879,69.336,27.832
1584599225.317,63.965,22.461,26.855,181.152,-26.855
1584599225.321,-0.977,15.625,21.484,-3.418,-20.020
1584599225.325,-40.527,12.695,20.996,-162.109,-11.719
1584599225.329,17.090,23.438,30.762,-2.930,-30.273
1584599225.333,64.941,28.809,35.156,186.035,4.395
1584599225.337,22.461,21.973,31.250,77.148,40.039
1584599225.341,-35.645,13.672,28.809,-131.348,38.086
1584599225.345,-1.465,22.949,30.762,-54.688,28.320
1584599225.349,58.105,36.621,32.715,169.434,65.430
1584599225.352,36.133,34.668,28.809,126.953,34.180
1584599225.356,-24.902,25.879,23.926,-104.980,14.160
1584599225.360,-13.184,29.785,26.367,-105.957,84.473
1584599225.364,58.105,39.551,33.203,128.418,69.824
1584599225.368,59.570,36.133,33.203,169.434,31.738
1584599225.372,-15.625,26.855,26.367,-52.246,23.438
1584599225.376,-36.133,29.297,25.391,-147.949,-43.457
1584599225.380,32.715,42.480,31.738,51.270,-9.766
1584599225.384,70.312,46.387,34.180,190.430,95.215
1584599225.388,12.695,34.180,29.297,28.320,93.262
1584599225.392,-35.156,23.438,29.785,-141.602,58.594
1584599225.395,14.648,28.809,37.109,-4.395,16.113
1584599225.399,60.547,39.062,39.062,181.641,-5.371
1584599225.403,18.066,35.156,30.273,75.195,3.906
1584599225.407,-42.480,25.391,21.484,-135.254,3.906
1584599225.411,-7.812,32.715,23.926,-68.359,-7.812
1584599225.415,61.035,43.945,29.297,148.438,-4.395
1584599225.419,43.457,41.504,31.738,135.742,34.668
1584599225.423,-22.461,33.203,26.367,-83.984,10.254
1584599225.427,-19.043,36.133,22.461,-117.188,21.973
1584599225.431,51.758,45.898,28.809,106.934,37.598
1584599225.435,58.105,44.922,32.227,177.734,-20.996
1584599225.438,-13.672,33.203,24.414,-28.320,9.766
1584599225.442,-37.109,30.273,20.020,-148.926,41.504
1584599225.446,29.297,41.016,28.320,37.109,-12.207
1584599225.450,64.941,44.434,34.668,185.059,-41.016
1584599225.454,6.348,32.227,33.691,30.273,11.719
1584599225.458,-43.945,23.438,32.227,-150.879,14.160
1584599225.462,8.301,35.645,32.227,-17.578,11.719
1584599225.466,63.477,42.969,35.645,183.594,59.082
1584599225.470,20.020,31.250,36.621,96.680,79.590
1584599225.474,-44.922,20.996,32.227,-122.559,38.086
1584599225.477,-16.113,28.809,34.668,-81.543,9.277
1584599225.481,55.664,42.969,37.109,148.926,22.949
1584599225.485,41.992,43.457,30.762,143.066,19.043
1584599225.489,-28.809,31.738,22.949,-84.473,-9.277
1584599225.493,-31.250,31.250,22.949,-130.859,10.742
1584599225.497,35.156,41.016,29.785,89.355,22.461
1584599225.501,48.340,38.574,32.715,175.781,-7.324
1584599225.505,-17.090,26.855,28.809,-19.531,15.625
1584599225.509,-44.434,21.973,27.344,-146.484,44.434
1584599225.513,22.949,31.738,35.645,29.297,51.270
1584599225.517,65.918,35.156,39.551,193.848,62.988
1584599225.520,16.602,24.414,30.762,55.664,46.875
1584599225.524,-32.227,25.391,24.902,-138.184,27.344
1584599225.528,8.789,41.016,30.273,-31.738,16.113
1584599225.532,61.523,48.340,34.180,170.410,7.812
1584599225.536,30.273,40.039,30.273,105.957,43.457
1584599225.540,-33.203,30.762,23.926,-112.793,10.742
1584599225.544,-10.254,32.227,26.855,-90.332,32.715
1584599225.548,61.035,41.992,34.180,148.438,86.914
1584599225.552,50.781,39.551,32.715,166.016,26.367
1584599225.556,-27.832,28.320,26.367,-67.871,10.742
1584599225.560,-34.668,31.250,24.902,-141.602,6.836
1584599225.563,45.410,40.527,27.344,68.848,-28.320
1584599225.567,72.266,41.992,29.297,180.176,3.906
1584599225.571,11.230,32.715,25.391,3.418,8.789
1584599225.575,-31.738,29.297,20.020,-149.414,26.855
1584599225.579,24.414,40.039,25.391,7.812,41.992
1584599225.583,73.730,47.852,30.273,190.918,59.570
1584599225.587,24.902,38.574,28.320,72.266,55.664
1584599225.591,-34.180,21.484,24.414,-133.301,-0.977
1584599225.595,5.371,24.414,29.297,-48.340,22.949
1584599225.599,64.941,36.133,35.645,173.340,11.230
1584599225.602,34.668,34.668,32.227,128.906,-41.504
1584599225.606,-36.621,22.949,20.508,-113.281,-45.410
1584599225.610,-17.578,24.902,19.043,-110.352,-11.719
1584599225.614,62.500,39.551,31.738,140.137,20.020
1584599225.618,60.059,40.039,31.738,178.711,41.504
1584599225.622,-19.531,29.785,19.531,-54.199,62.500
1584599225.626,-36.133,29.785,17.090,-145.996,53.711
1584599225.630,38.574,41.992,26.367,65.430,5.371
1584599225.634,71.289,45.898,27.344,194.336,-8.301
1584599225.638,13.184,34.180,21.484,26.367,57.129
1584599225.642,-26.855,25.391,21.973,-136.230,14.648
1584599225.645,30.273,30.762,31.738,10.742,8.789
1584599225.649,70.801,40.527,36.621,190.918,68.848
1584599225.653,17.578,34.668,28.320,72.266,41.016
1584599225.657,-41.016,26.367,23.926,-141.602,28.809
1584599225.661,0.977,31.738,30.273,-68.359,65.430
1584599225.665,78.125,37.598,34.180,171.875,45.898
1584599225.669,58.594,33.203,29.297,151.855,21.484
1584599225.673,-20.020,24.902,22.949,-91.309,15.625
1584599225.677,-18.066,30.762,22.949,-120.117,5.859
1584599225.681,51.758,41.504,27.344,108.398,24.414
1584599225.685,59.082,39.551,28.320,175.293,29.297
1584599225.688,-9.766,28.809,25.391,-27.832,28.809
1584599225.692,-29.785,23.926,26.855,-134.766,-7.812
1584599225.696,40.039,32.715,32.227,57.617,19.531
1584599225.700,69.824,38.574,32.227,191.895,90.820
1584599225.704,11.230,28.320,25.391,29.297,63.477
1584599225.708,-34.180,20.020,20.508,-146.973,35.645
1584599225.712,12.695,28.809,27.832,-13.672,75.195
1584599225.716,64.941,36.621,33.203,181.641,100.098
1584599225.720,28.320,31.738,27.832,93.262,9.766
1584599225.724,-37.598,21.973,20.996,-129.395,-17.578
1584599225.727,-11.230,22.949,22.461,-87.891,29.297
1584599225.731,54.688,30.762,27.832,145.996,50.781
1584599225.735,44.922,30.273,24.902,146.973,38.574
1584599225.739,-20.020,20.508,19.043,-78.125,34.668
1584599225.743,-19.043,21.973,18.066,-128.906,42.969
1584599225.747,49.316,38.574,19.043,88.867,-11.230
1584599225.751,53.711,40.039,21.484,178.711,-36.621
1584599225.755,-14.160,21.973,20.508,-17.578,-6.836
1584599225.759,-36.621,15.137,20.020,-141.113,40.039
1584599225.763,28.320,26.367,27.832,47.363,34.668
1584599225.767,62.500,36.133,29.785,199.707,33.203
1584599225.770,9.277,29.297,21.973,44.434,48.340
1584599225.774,-40.039,23.926,18.555,-142.578,40.039
1584599225.778,7.812,34.180,22.949,-29.297,9.277
1584599225.782,65.430,41.504,26.855,176.758,-28.809
1584599225.786,34.180,32.715,23.438,115.234,-12.695
1584599225.790,-28.809,20.996,21.484,-112.793,9.277
1584599225.794,-8.301,28.320,24.414,-91.797,28.320
1584599225.798,64.453,36.621,30.762,146.973,79.590
1584599225.802,61.035,31.738,34.668,169.922,99.121
1584599225.806,-12.695,24.902,29.785,-49.316,23.438
1584599225.810,-25.879,22.949,29.785,-122.070,-4.395
1584599225.813,44.434,30.273,37.109,87.891,-6.348
1584599225.817,64.941,33.203,34.180,188.965,1.953
1584599225.821,5.371,24.902,29.785,1.465,34.668
1584599225.825,-25.879,21.973,29.297,-136.230,63.477
1584599225.829,24.902,34.668,31.250,24.414,87.891
1584599225.833,56.152,40.039,27.344,180.664,49.805
1584599225.837,10.254,29.785,20.996,52.246,-3.418
1584599225.841,-35.156,21.973,18.066,-141.602,-14.648
1584599225.845,1.465,28.809,19.043,-48.340,23.438
1584599225.849,52.246,35.645,20.020,156.738,24.414
1584599225.852,25.879,31.738,15.137,110.352,69.824
1584599225.856,-37.109,21.973,10.254,-110.352,74.707
1584599225.860,-23.926,21.484,18.555,-111.328,25.391
1584599225.864,45.898,32.715,27.832,127.441,32.715
1584599225.868,49.316,34.180,29.297,169.922,46.875
1584599225.872,-20.508,21.973,22.461,-58.105,60.059
1584599225.876,-37.598,20.020,18.555,-146.484,62.500
1584599225.880,34.668,32.227,25.391,61.523,40.039
1584599225.884,63.477,34.180,30.273,192.383,66.895
1584599225.888,2.930,21.484,28.320,23.438,38.086
1584599225.892,-32.227,13.672,27.832,-135.742,25.391
1584599225.895,21.973,26.855,30.273,1.953,59.570
1584599225.899,63.477,41.016,30.273,181.641,70.312
1584599225.903,21.973,34.180,26.367,81.055,56.641
1584599225.907,-36.621,22.461,22.949,-132.324,36.621
1584599225.911,1.465,24.414,27.832,-60.059,21.973
1584599225.915,69.824,30.273,35.156,167.480,38.574
1584599225.919,41.016,25.879,33.203,141.113,10.254
1584599225.923,-31.738,15.625,26.367,-88.867,22.461
1584599225.927,-21.973,20.996,22.461,-113.770,41.504
1584599225.931,46.387,36.133,24.902,113.770,44.434
1584599225.935,42.480,37.109,24.902,165.039,66.895
1584599225.938,-24.902,23.438,21.973,-53.711,27.344
1584599225.942,-41.504,18.066,22.949,-154.785,21.484
1584599225.946,32.227,28.809,28.320,53.711,13.672
1584599225.950,67.871,32.227,29.297,195.312,41.992
1584599225.954,10.254,20.996,24.414,30.273,68.359
1584599225.958,-37.109,18.066,15.625,-149.902,20.508
1584599225.962,5.371,26.367,20.020,-20.996,31.250
1584599225.966,58.594,28.809,32.715,182.617,88.379
1584599225.970,30.762,20.996,28.320,107.422,64.453
1584599225.974,-32.227,15.137,18.555,-118.164,-41.992
1584599225.977,-11.719,26.367,19.043,-87.891,-20.508
1584599225.981,58.594,38.574,23.926,141.602,2.441
1584599225.985,53.711,38.086,20.996,137.695,-20.508
1584599225.989,-16.602,29.297,14.648,-85.938,-7.324
1584599225.993,-23.438,22.949,16.113,-119.629,20.996
1584599225.997,45.410,29.785,23.926,104.492,45.898
1584599226.001,52.734,34.180,23.926,180.664,16.113
1584599226.005,-8.301,25.879,20.020,-16.113,37.109
1584599226.009,-24.902,23.438,18.555,-135.254,53.223
1584599226.013,32.227,37.598,20.020,36.133,78.125
1584599226.017,57.617,41.504,21.484,176.270,106.934
1584599226.020,4.883,29.297,18.066,33.203,60.059
1584599226.024,-35.645,21.973,17.090,-134.766,11.719
1584599226.028,20.996,26.367,20.508,-16.113,22.461
1584599226.032,69.824,38.574,22.461,171.875,59.570
1584599226.036,20.996,37.109,16.113,91.797,40.527
1584599226.040,-46.387,23.926,8.301,-134.277,-6.836
1584599226.044,-17.578,29.785,10.742,-101.562,21.484
1584599226.048,55.664,40.039,22.461,140.137,69.824
1584599226.052,45.410,31.250,27.344,160.156,32.227
1584599226.056,-22.461,13.672,24.414,-62.500,7.812
1584599226.060,-20.508,16.602,25.391,-123.535,-21.973
1584599226.063,50.293,32.227,30.273,91.309,2.930
1584599226.067,58.105,35.645,28.320,182.129,32.227
1584599226.071,-6.836,24.902,20.508,-15.625,41.992
1584599226.075,-36.621,18.555,16.113,-160.645,13.672
1584599226.079,29.297,30.762,21.973,20.508,3.418
1584599226.083,79.590,35.645,29.297,203.613,25.391
1584599226.087,23.926,26.367,24.902,78.125,-1.953
1584599226.091,-45.898,17.090,20.020,-134.277,35.645
1584599226.095,-8.301,24.414,21.973,-51.758,21.484
1584599226.099,56.152,37.598,21.973,164.062,26.855
1584599226.102,31.738,32.715,20.020,112.305,27.832
1584599226.106,-33.203,20.020,17.090,-112.305,-11.719
1584599226.110,-17.578,23.438,18.066,-98.633,4.395
1584599226.114,49.316,35.156,22.949,130.859,-6.348
1584599226.118,47.363,33.203,20.020,157.715,-24.414
1584599226.122,-20.508,21.484,15.137,-63.965,-49.805
1584599226.126,-29.785,21.484,19.531,-134.766,-67.871
1584599226.130,40.527,30.273,28.320,78.613,-30.762
1584599226.134,60.547,30.762,30.273,192.383,-24.902
1584599226.138,2.441,21.484,28.320,21.484,-33.691
1584599226.142,-31.738,15.625,27.832,-139.648,15.625
1584599226.145,18.555,25.391,26.367,5.859,55.176
1584599226.149,61.523,33.203,25.391,184.570,45.898
1584599226.153,22.461,27.344,22.949,73.242,-1.465
1584599226.157,-26.855,20.020,17.578,-131.836,-19.531
1584599226.161,10.742,24.902,22.461,-52.734,-22.461
1584599226.165,71.289,33.203,29.297,171.387,17.578
1584599226.169,47.363,33.203,28.809,139.648,41.504
1584599226.173,-27.344,25.391,22.461,-95.215,-2.930
1584599226.177,-23.438,26.855,21.973,-114.746,-29.297
1584599226.181,54.688,36.621,25.879,119.141,3.906
1584599226.185,66.895,37.598,25.391,179.688,38.574
1584599226.188,0.977,27.344,18.066,-26.367,6.348
1584599226.192,-15.137,24.414,17.090,-127.441,25.879
1584599226.196,52.734,34.668,22.949,70.801,78.125
1584599226.200,75.195,39.062,26.367,207.031,38.574
1584599226.204,9.277,29.785,22.949,32.227,-10.254
1584599226.208,-40.039,21.973,16.113,-148.926,-15.625
1584599226.212,13.184,29.785,23.438,-11.719,-24.902
1584599226.216,70.801,38.574,30.762,189.941,-0.977
1584599226.220,31.250,33.691,24.902,95.703,14.648
1584599226.224,-38.086,22.949,15.137,-136.719,52.734
1584599226.227,-4.395,28.320,17.578,-82.031,73.730
1584599226.231,74.219,39.062,27.344,161.133,51.758
1584599226.235,50.781,33.691,26.367,152.344,97.656
1584599226.239,-35.156,20.020,19.531,-83.984,99.609
1584599226.243,-29.785,22.949,22.461,-116.211,26.367
1584599226.247,47.363,32.715,32.227,112.305,2.930
1584599226.251,62.988,30.273,31.738,183.105,4.395
1584599226.255,-5.371,22.461,22.949,-22.461,6.348
1584599226.259,-38.086,22.949,20.996,-149.414,40.527
1584599226.263,27.344,31.738,29.297,40.039,15.137
1584599226.267,68.848,33.203,30.762,198.730,37.598
1584599226.270,13.184,23.438,24.902,48.340,112.305
1584599226.274,-41.016,20.508,22.949,-142.578,51.758
1584599226.278,4.395,28.809,25.879,-29.785,4.883
1584599226.282,65.918,39.551,28.320,177.734,14.160
1584599226.286,37.109,35.156,25.879,107.910,43.945
1584599226.290,-33.691,23.438,18.066,-120.117,47.363
1584599226.294,-8.789,24.902,20.508,-91.797,8.301
1584599226.298,63.965,34.180,27.832,141.602,7.324
1584599226.302,57.129,30.762,25.879,158.691,44.434
1584599226.306,-10.742,18.066,24.902,-56.152,62.988
1584599226.310,-17.090,19.531,28.320,-119.629,8.789
1584599226.313,55.176,30.762,34.668,91.797,-3.906
1584599226.317,66.406,35.645,36.621,184.570,42.480
1584599226.321,-5.859,27.344,30.273,-6.348,31.738
1584599226.325,-37.598,22.461,26.367,-144.531,39.062
1584599226.329,25.879,34.668,33.691,23.926,80.566
1584599226.333,63.477,41.992,35.645,189.941,99.121
1584599226.337,11.719,29.297,30.762,56.641,53.711
1584599226.341,-31.738,21.484,29.297,-135.742,4.883
1584599226.345,14.160,35.645,31.250,-36.133,41.992
1584599226.349,66.895,45.410,32.715,166.992,87.402
1584599226.352,31.250,38.086,24.414,103.516,3.418
1584599226.356,-37.598,27.832,13.672,-115.723,20.020
1584599226.360,-17.090,31.738,15.625,-106.934,63.477
1584599226.364,55.176,44.922,20.996,121.582,42.969
1584599226.368,48.828,40.039,21.973,161.621,39.551
1584599226.372,-15.625,22.461,18.555,-55.176,-1.465
1584599226.376,-17.578,21.973,17.578,-128.418,-16.602
1584599226.380,43.457,36.621,21.484,76.660,34.668
1584599226.384,57.129,41.504,20.996,182.129,-5.371
1584599226.388,-1.953,32.227,16.602,0.977,-38.574
1584599226.392,-39.551,24.902,15.625,-150.879,26.367
1584599226.395,20.996,32.715,20.996,8.789,5.859
1584599226.399,68.359,40.039,25.879,195.312,17.578
1584599226.403,22.949,30.762,21.484,78.613,22.461
1584599226.407,-30.273,23.926,19.043,-135.254,41.016
1584599226.411,7.324,32.227,23.438,-53.711,69.824
1584599226.415,65.430,40.527,26.855,168.945,17.578
1584599226.419,43.457,37.598,24.902,133.789,26.367
1584599226.423,-22.461,27.832,19.531,-90.820,14.648
1584599226.427,-15.137,27.832,20.020,-107.422,54.199
1584599226.431,55.664,35.156,27.344,121.094,56.641
1584599226.435,56.152,32.715,29.785,175.293,-21.973
1584599226.438,-12.695,20.996,24.414,-40.527,21.484
1584599226.442,-32.715,20.020,22.949,-142.090,17.090
1584599226.446,26.855,32.227,27.344,45.410,47.363
1584599226.450,54.688,39.551,30.762,169.922,97.168
1584599226.454,-0.977,32.715,25.879,6.348,2.930
1584599226.458,-39.062,24.902,21.973,-154.297,11.719
1584599226.462,18.555,30.273,30.273,-4.883,37.598
1584599226.466,66.895,33.203,37.109,194.824,-3.906
1584599226.470,29.785,25.391,32.715,98.633,23.926
1584599226.474,-31.250,20.508,21.484,-127.930,-10.254
1584599226.477,-6.836,30.762,21.973,-70.801,17.578
1584599226.481,60.059,41.992,25.879,159.180,62.500
1584599226.485,44.922,38.086,24.414,139.160,12.207
1584599226.489,-17.090,27.344,21.484,-81.055,11.230
1584599226.493,-11.230,24.414,24.414,-113.281,40.039
1584599226.497,61.523,35.645,34.668,111.816,32.715
1584599226.501,72.266,41.016,34.180,186.523,54.688
1584599226.505,-2.441,28.320,25.879,-22.949,37.109
1584599226.509,-28.320,20.508,22.949,-141.602,-2.930
1584599226.513,44.922,32.227,28.320,52.246,33.691
1584599226.517,84.473,37.109,34.180,208.008,29.785
1584599226.520,26.367,27.832,26.855,53.711,6.348
1584599226.524,-25.879,23.438,20.508,-135.254,21.484
1584599226.528,19.531,36.621,24.902,-20.996,15.625
1584599226.532,71.289,42.480,31.738,186.523,5.859
1584599226.536,32.715,29.785,28.320,111.328,-5.371
1584599226.540,-28.809,21.973,23.438,-122.070,-13.672
1584599226.544,1.953,28.809,27.832,-82.031,48.340
1584599226.548,68.359,38.574,33.691,151.855,58.105
1584599226.552,48.340,36.133,28.320,155.762,47.363
1584599226.556,-21.484,23.926,19.531,-75.195,44.922
