timestamps,TP9,AF7,AF8,TP10,Right AUX
1584598908.048,11.230,34.180,26.855,48.828,49.316
1584598908.052,-8.789,28.320,27.344,-16.113,3.906
1584598908.056,41.992,29.785,33.203,-7.324,10.254
1584598908.060,61.523,30.273,31.250,54.688,40.527
1584598908.063,19.531,26.855,25.879,53.223,35.645
1584598908.067,-12.695,22.461,26.367,-10.742,46.875
1584598908.071,23.926,25.879,27.832,-28.809,3.906
1584598908.075,69.336,33.691,29.785,41.992,-36.133
1584598908.079,39.551,28.809,27.344,66.895,-12.207
1584598908.083,-11.230,23.926,22.949,10.254,22.949
1584598908.087,7.812,26.855,21.484,-31.738,74.707
1584598908.091,60.059,30.762,26.855,23.926,78.125
1584598908.095,50.293,35.645,25.391,71.777,67.383
1584598908.099,0.488,34.180,21.973,34.668,64.453
1584598908.102,0.977,26.855,23.926,-19.531,-11.719
1584598908.106,52.246,27.832,27.344,8.301,-15.137
1584598908.110,62.500,28.809,31.738,69.336,36.621
1584598908.114,15.137,21.973,28.809,52.734,16.113
1584598908.118,6.348,19.531,27.344,5.859,-1.953
1584598908.122,55.664,29.785,26.367,7.324,41.504
1584598908.126,69.824,33.203,23.438,51.758,16.113
1584598908.130,27.832,30.273,20.996,51.270,5.859
1584598908.134,-22.461,31.250,20.508,-15.137,31.738
1584598908.138,0.000,32.227,19.531,-45.410,-21.973
1584598908.142,53.223,37.598,22.949,25.879,-15.137
1584598908.145,34.180,40.039,23.926,57.617,36.133
1584598908.149,-23.926,36.621,17.578,-6.348,49.805
1584598908.153,-10.742,37.109,18.066,-49.316,32.715
1584598908.157,45.898,36.621,22.461,9.277,84.961
1584598908.161,39.551,33.691,24.414,55.664,87.402
1584598908.165,-14.648,28.320,20.996,17.090,9.277
1584598908.169,-22.461,29.785,17.578,-37.109,15.137
1584598908.173,31.738,34.668,20.996,-15.625,76.660
1584598908.177,49.316,33.203,24.414,43.945,49.316
1584598908.181,-1.953,30.762,20.996,31.738,36.621
1584598908.185,-21.973,29.297,18.066,-25.391,54.688
1584598908.188,29.785,34.668,21.973,-21.484,60.547
1584598908.192,58.594,36.621,23.926,43.457,34.180
1584598908.196,20.020,32.227,21.973,53.223,49.316
1584598908.200,-20.996,25.391,17.578,-6.836,82.520
1584598908.204,9.766,27.344,18.555,-34.180,70.312
1584598908.208,58.105,32.715,20.996,25.391,74.707
1584598908.212,39.551,29.785,24.902,62.500,68.359
1584598908.216,-19.043,22.949,24.902,16.113,26.855
1584598908.220,-7.324,22.949,21.973,-34.668,-13.184
1584598908.224,57.129,32.715,25.391,6.348,-31.738
1584598908.227,57.617,35.645,25.391,66.406,-66.406
1584598908.231,3.418,30.762,25.391,43.945,-1.465
1584598908.235,-6.348,24.902,28.320,-16.602,11.230
1584598908.239,45.898,27.344,27.344,1.953,-14.648
1584598908.243,64.453,32.715,23.438,63.965,13.672
1584598908.247,13.184,29.297,20.996,52.734,-2.930
1584598908.251,-16.602,27.344,20.020,-7.812,23.438
1584598908.255,29.297,30.273,23.926,-15.625,30.762
1584598908.259,65.918,31.738,26.855,48.828,17.578
1584598908.263,29.785,28.320,24.414,64.453,43.457
1584598908.267,-17.578,25.391,25.391,0.977,23.438
1584598908.270,7.812,30.273,25.391,-28.809,9.766
1584598908.274,59.082,34.180,24.414,31.738,19.531
1584598908.278,40.039,33.203,22.949,67.871,43.457
1584598908.282,-12.207,28.320,24.414,26.367,19.043
1584598908.286,-0.977,29.785,30.762,-20.996,-7.324
1584598908.290,52.246,32.715,31.738,15.137,14.160
1584598908.294,55.664,32.715,28.809,67.383,12.207
1584598908.298,2.930,31.250,24.902,38.086,5.371
1584598908.302,-14.648,28.809,21.484,-23.438,-9.766
1584598908.306,36.133,30.762,22.461,-11.230,-11.719
1584598908.310,60.059,28.320,23.926,49.805,29.297
1584598908.313,16.113,28.809,25.391,44.922,3.906
1584598908.317,-19.043,27.832,25.391,-9.277,-2.441
1584598908.321,18.555,25.391,28.320,-16.113,65.918
1584598908.325,54.688,26.855,28.809,43.457,71.777
1584598908.329,27.832,28.809,24.902,62.500,16.113
1584598908.333,-16.113,22.461,24.414,6.836,40.527
1584598908.337,0.488,22.461,23.438,-27.832,72.754
1584598908.341,50.293,32.715,23.926,21.484,38.086
1584598908.345,42.480,30.762,25.391,58.105,22.461
1584598908.349,-6.836,24.414,26.855,28.320,61.523
1584598908.352,-6.348,22.949,26.367,-26.367,21.484
1584598908.356,44.434,29.297,27.832,-5.859,-1.465
1584598908.360,51.270,31.250,31.738,57.129,7.324
1584598908.364,0.977,27.832,29.297,38.574,-16.602
1584598908.368,-15.137,25.879,28.320,-20.508,42.480
1584598908.372,32.715,25.879,27.832,-11.719,16.602
1584598908.376,57.617,26.367,32.227,53.711,-34.668
1584598908.380,14.160,21.973,33.691,54.688,11.230
1584598908.384,-28.320,20.508,24.414,-12.695,43.457
1584598908.388,6.836,25.391,22.461,-27.344,38.086
1584598908.392,51.758,29.785,27.344,43.945,59.570
1584598908.395,21.973,27.832,26.855,67.871,84.961
1584598908.399,-25.879,20.020,23.926,3.906,40.039
1584598908.403,-6.348,20.508,24.902,-38.086,21.973
1584598908.407,50.293,26.855,28.320,25.879,46.875
1584598908.411,46.387,28.809,26.367,72.266,53.223
1584598908.415,-9.766,25.391,24.902,29.297,41.016
1584598908.419,-12.207,23.926,27.344,-24.414,16.602
1584598908.423,41.504,29.785,27.832,3.418,14.160
1584598908.427,52.734,29.785,26.855,64.941,18.555
1584598908.431,7.324,26.367,27.344,45.898,3.906
1584598908.435,-12.695,26.367,26.855,-20.020,-10.254
1584598908.438,38.086,24.902,32.227,-3.906,44.434
1584598908.442,85.938,26.367,37.598,81.543,79.102
1584598908.446,49.316,30.762,28.320,77.148,81.055
1584598908.450,-21.484,30.273,24.902,-8.789,42.480
1584598908.454,-6.836,32.715,25.391,-31.250,16.602
1584598908.458,45.410,39.062,19.531,30.273,70.312
1584598908.462,21.484,40.527,16.602,41.992,48.340
1584598908.466,-35.156,40.039,13.184,-20.996,26.855
1584598908.470,-14.648,43.945,5.371,-56.152,27.344
1584598908.474,44.434,51.758,3.418,-2.441,10.742
1584598908.477,39.062,53.711,8.301,41.016,4.883
1584598908.481,-21.973,48.828,2.441,-9.766,29.297
1584598908.485,-26.367,52.734,-9.277,-73.242,69.824
1584598908.489,36.621,60.547,-8.789,-34.668,60.547
1584598908.493,54.688,64.941,-1.953,28.320,32.715
1584598908.497,8.301,63.965,-3.906,3.418,39.062
1584598908.501,-32.715,59.082,-8.789,-65.430,62.500
1584598908.505,13.184,63.477,-5.371,-62.012,22.461
1584598908.509,58.594,72.754,-2.930,18.555,8.789
1584598908.513,20.996,71.289,-6.836,30.273,58.594
1584598908.517,-26.855,61.035,-4.883,-40.039,36.621
1584598908.520,1.465,58.105,-0.488,-61.523,50.293
1584598908.524,56.641,65.430,-1.953,15.625,83.008
1584598908.528,33.203,63.477,-2.930,40.039,57.617
1584598908.532,-18.066,60.547,-4.395,-23.926,22.949
1584598908.536,-0.488,61.523,-3.418,-65.918,41.504
1584598908.540,55.176,60.547,0.000,-8.301,56.641
1584598908.544,60.059,59.570,1.953,50.293,47.363
1584598908.548,4.883,50.293,0.000,0.488,94.238
1584598908.552,-14.160,40.527,-0.977,-65.918,100.586
1584598908.556,38.574,48.340,5.859,-23.438,62.012
1584598908.560,63.965,51.758,9.766,55.176,24.902
1584598908.563,20.996,41.504,9.766,38.574,31.738
1584598908.567,-10.254,35.645,11.719,-34.668,51.270
1584598908.571,29.297,35.645,15.137,-37.109,69.336
1584598908.575,70.801,39.062,15.137,42.480,40.039
1584598908.579,42.480,39.062,10.742,51.758,-4.883
1584598908.583,-1.953,34.668,11.719,-21.973,35.156
1584598908.587,19.531,33.691,16.113,-43.457,5.859
1584598908.591,70.312,36.133,16.113,35.645,-32.227
1584598908.595,53.223,35.156,14.648,63.965,8.301
1584598908.599,-3.906,31.250,17.090,-6.836,-17.090
1584598908.602,4.883,29.785,21.484,-44.434,28.320
1584598908.606,53.711,32.715,21.973,16.113,26.855
1584598908.610,61.523,30.762,24.414,74.219,-45.410
1584598908.614,17.090,25.391,23.926,29.785,-32.715
1584598908.618,-3.418,25.391,17.578,-35.645,20.996
1584598908.622,36.621,27.344,22.949,3.418,46.387
1584598908.626,61.523,30.762,29.785,79.102,10.742
1584598908.630,24.902,27.832,28.320,57.129,-7.812
1584598908.634,-7.324,27.832,29.785,-24.414,-11.230
1584598908.638,25.391,28.809,31.250,-28.320,8.301
1584598908.642,61.035,30.273,30.762,52.734,49.805
1584598908.645,39.062,31.738,31.250,64.941,50.781
1584598908.649,0.000,23.926,30.273,-5.859,42.969
1584598908.653,15.137,23.926,29.785,-32.227,74.219
1584598908.657,61.523,30.273,33.203,46.387,61.523
1584598908.661,51.270,31.250,36.133,91.797,69.824
1584598908.665,0.977,24.902,30.762,20.996,58.594
1584598908.669,1.953,20.996,27.344,-37.109,40.039
1584598908.673,50.293,27.344,31.738,19.531,79.590
1584598908.677,61.035,27.832,34.180,81.543,7.812
1584598908.681,17.578,20.020,31.250,31.250,22.461
1584598908.685,-3.418,16.602,28.809,-51.758,81.055
1584598908.688,39.551,24.902,31.250,-16.113,32.227
1584598908.692,63.965,32.227,34.668,77.148,32.715
1584598908.696,24.414,26.367,35.645,59.570,72.754
1584598908.700,-13.672,21.973,31.738,-26.367,60.059
1584598908.704,10.254,25.391,34.668,-29.785,77.148
1584598908.708,41.992,25.391,39.062,60.547,76.172
1584598908.712,21.484,21.484,34.668,74.219,68.359
1584598908.716,-21.484,16.602,29.785,-11.719,34.180
1584598908.720,-10.742,18.066,27.832,-47.852,6.836
1584598908.724,35.156,23.438,27.832,36.133,25.879
1584598908.727,40.527,22.949,30.273,85.449,23.438
1584598908.731,0.977,17.090,30.273,9.766,-12.695
1584598908.735,-5.859,20.020,31.738,-43.945,26.855
1584598908.739,49.805,26.855,32.715,27.832,25.391
1584598908.743,62.500,29.785,32.227,93.262,-56.152
1584598908.747,10.254,20.020,35.156,34.180,-41.016
1584598908.751,-20.508,15.625,35.645,-48.828,-5.859
1584598908.755,15.137,17.578,35.156,-16.602,19.043
1584598908.759,48.828,18.555,36.621,73.242,32.227
1584598908.763,24.902,20.508,35.156,60.059,43.945
1584598908.767,-9.766,18.066,35.156,-25.879,70.801
1584598908.770,11.230,16.602,36.621,-29.785,55.664
1584598908.774,51.758,22.949,33.203,60.547,29.785
1584598908.778,37.109,24.902,31.250,76.660,30.273
1584598908.782,-8.789,16.602,34.668,-7.324,23.438
1584598908.786,-3.418,14.160,34.180,-48.340,6.348
1584598908.790,43.945,21.973,35.156,35.645,42.969
1584598908.794,48.340,24.902,37.109,94.727,42.480
1584598908.798,1.465,20.508,31.738,24.902,35.156
1584598908.802,-10.254,20.020,30.762,-43.457,49.805
1584598908.806,37.109,24.902,36.621,18.555,26.367
1584598908.810,55.176,25.879,37.598,97.656,18.066
1584598908.813,23.438,21.973,31.250,51.758,12.695
1584598908.817,-0.488,19.531,25.391,-35.645,-9.766
1584598908.821,28.320,22.461,29.785,-8.789,13.184
1584598908.825,75.195,23.926,38.086,103.516,12.207
1584598908.829,48.828,26.367,34.668,90.820,8.301
1584598908.833,-22.461,26.367,24.414,-41.992,59.570
1584598908.837,-12.695,27.832,24.414,-59.570,81.543
1584598908.841,37.109,36.621,27.344,54.688,77.637
1584598908.845,30.762,35.645,27.832,85.449,60.547
1584598908.849,-12.695,29.297,27.344,-4.883,33.691
1584598908.852,-16.113,27.832,29.785,-57.129,-1.465
1584598908.856,34.668,34.180,31.738,26.855,-29.297
1584598908.860,49.805,35.156,28.320,94.238,5.859
1584598908.864,5.859,25.391,23.926,20.508,45.898
1584598908.868,-7.324,23.438,26.367,-54.688,33.203
1584598908.872,36.621,31.738,31.738,5.859,21.484
1584598908.876,62.012,33.691,29.785,94.238,55.176
1584598908.880,34.180,29.297,25.391,50.781,42.969
1584598908.884,-0.488,27.832,25.879,-45.410,15.625
1584598908.888,23.926,29.297,29.297,-19.531,-4.883
1584598908.892,62.988,31.738,36.621,81.543,-27.344
1584598908.895,41.992,36.133,32.715,75.684,-11.719
1584598908.899,-4.883,32.227,28.809,-20.508,17.090
1584598908.903,2.930,25.391,32.227,-37.598,11.719
1584598908.907,46.387,29.297,31.250,63.965,9.766
1584598908.911,44.922,26.855,31.250,96.680,52.734
1584598908.915,-3.418,18.555,29.297,4.883,37.598
1584598908.919,-3.906,23.926,30.273,-42.969,17.090
1584598908.923,43.457,30.762,32.227,42.480,46.875
1584598908.927,52.246,30.762,30.273,101.562,32.715
1584598908.931,9.766,27.344,30.762,29.297,0.488
1584598908.935,-14.160,22.461,26.367,-49.805,22.461
1584598908.938,24.414,31.738,22.949,-1.953,-20.020
1584598908.942,49.316,37.598,26.367,87.891,-36.621
1584598908.946,18.066,28.809,27.344,53.711,15.137
1584598908.950,-13.184,21.484,27.832,-43.457,8.301
1584598908.954,12.207,25.391,30.762,-25.879,15.625
1584598908.958,46.875,26.367,31.250,81.055,39.551
1584598908.962,30.273,26.367,31.738,79.590,30.273
1584598908.966,-8.789,25.391,30.273,-20.508,50.781
1584598908.970,-4.883,22.461,27.344,-50.293,68.848
1584598908.974,39.062,32.227,28.320,52.734,34.668
1584598908.977,39.551,31.250,29.785,98.145,0.488
1584598908.981,-4.883,22.461,28.809,1.953,-32.227
1584598908.985,-12.695,22.949,24.902,-59.082,14.160
1584598908.989,28.320,26.367,28.320,23.926,47.363
1584598908.993,47.852,30.273,30.762,104.980,16.113
1584598908.997,13.184,25.879,28.320,40.039,1.465
1584598909.001,-11.719,21.973,27.344,-56.152,-25.391
1584598909.005,24.414,27.832,28.320,-6.348,0.977
1584598909.009,53.223,35.645,28.809,97.168,53.223
1584598909.013,26.855,32.227,22.949,56.641,44.922
1584598909.017,-9.766,23.926,21.973,-53.711,39.062
1584598909.020,8.789,28.320,28.320,-35.156,62.988
1584598909.024,48.828,31.738,32.227,84.961,54.688
1584598909.028,34.668,25.391,28.320,87.402,33.691
1584598909.032,-9.277,21.484,22.461,-22.461,52.246
1584598909.036,-1.953,24.902,22.461,-54.199,-5.859
1584598909.040,45.898,31.250,29.297,51.758,15.625
1584598909.044,45.410,34.668,30.273,105.957,77.637
1584598909.048,2.930,29.297,24.414,12.695,43.945
1584598909.052,-9.766,24.414,24.902,-57.129,-7.324
1584598909.056,31.250,27.344,28.320,24.902,3.906
1584598909.060,51.758,25.391,30.273,103.516,73.730
1584598909.063,17.578,22.461,27.832,38.086,68.848
1584598909.067,-5.371,19.531,23.438,-55.664,39.551
1584598909.071,21.973,23.926,24.414,-14.160,9.277
1584598909.075,53.711,30.762,26.855,94.727,10.742
1584598909.079,33.691,24.414,28.809,74.219,-6.836
1584598909.083,-13.672,15.137,29.785,-38.574,-7.324
1584598909.087,3.418,17.578,26.855,-46.387,66.406
1584598909.091,49.805,27.344,27.344,67.383,53.711
1584598909.095,37.598,24.902,30.762,87.402,2.930
1584598909.099,-7.324,12.695,26.855,-16.602,-19.531
1584598909.102,-5.371,11.230,23.926,-60.547,-0.977
1584598909.106,41.016,21.973,28.809,36.133,62.012
1584598909.110,49.805,28.320,32.227,105.469,58.105
1584598909.114,6.836,23.926,28.320,23.926,9.277
1584598909.118,-8.789,20.020,28.320,-57.617,17.090
1584598909.122,39.551,22.949,34.180,21.484,-19.531
1584598909.126,61.523,32.227,35.645,111.816,-10.742
1584598909.130,15.625,30.762,30.273,40.039,22.461
1584598909.134,-18.555,23.926,24.902,-65.918,7.324
1584598909.138,9.766,26.855,25.879,-25.879,29.785
1584598909.142,40.039,29.297,27.832,94.238,37.109
1584598909.145,18.555,25.391,27.344,83.008,44.922
1584598909.149,-18.066,21.973,23.926,-41.992,41.016
1584598909.153,0.000,27.344,25.879,-58.105,31.250
1584598909.157,46.875,33.691,29.297,64.941,66.895
1584598909.161,35.645,30.273,26.855,91.309,43.457
1584598909.165,-9.277,24.902,23.926,-17.090,11.719
1584598909.169,-10.254,23.438,24.902,-68.359,11.230
1584598909.173,30.762,26.855,30.762,33.691,0.488
1584598909.177,46.387,32.715,32.715,104.492,41.016
1584598909.181,13.184,26.855,30.273,22.949,38.086
1584598909.185,-8.789,22.949,28.809,-64.453,8.789
1584598909.188,24.902,25.879,27.832,-2.930,-16.602
1584598909.192,56.152,25.391,27.344,104.492,-19.043
1584598909.196,27.344,23.438,22.949,58.105,34.668
1584598909.200,-9.277,22.461,20.508,-49.805,41.992
1584598909.204,16.113,24.902,24.414,-25.391,44.434
1584598909.208,52.246,26.855,28.320,85.449,17.578
1584598909.212,32.715,22.461,26.367,78.125,-24.902
1584598909.216,-2.930,20.020,21.484,-31.738,-17.578
1584598909.220,8.789,22.949,22.461,-47.363,34.180
1584598909.224,46.387,29.785,26.855,63.965,49.805
1584598909.227,44.922,27.344,26.855,99.609,25.391
1584598909.231,2.930,20.508,26.855,1.465,34.668
1584598909.235,-6.348,21.973,26.855,-62.988,27.832
1584598909.239,34.180,24.414,25.879,23.926,18.555
1584598909.243,52.246,27.832,30.273,103.027,52.734
1584598909.247,13.672,27.344,29.785,25.879,88.867
1584598909.251,-13.672,21.973,24.414,-65.430,59.082
1584598909.255,22.949,26.855,25.391,-14.648,-5.859
1584598909.259,51.270,33.691,26.367,87.402,-1.465
1584598909.263,21.973,28.809,23.926,56.641,49.316
1584598909.267,-20.020,23.926,18.066,-52.246,14.648
1584598909.270,-0.488,25.391,20.996,-40.527,11.719
1584598909.274,41.016,26.855,27.832,77.637,51.758
1584598909.278,27.832,25.391,24.414,86.914,20.020
1584598909.282,-12.695,20.996,20.508,-23.926,-21.484
1584598909.286,-8.789,21.973,21.484,-57.129,9.766
1584598909.290,40.039,27.344,21.484,51.758,33.203
1584598909.294,62.500,29.297,21.484,120.605,49.316
1584598909.298,16.602,22.949,25.391,20.508,53.711
1584598909.302,-21.973,15.137,32.715,-80.078,44.922
1584598909.306,20.996,23.438,36.621,11.719,77.148
1584598909.310,49.316,25.879,35.645,114.258,93.750
1584598909.313,9.766,14.160,33.691,44.922,24.414
1584598909.317,-15.137,13.672,31.738,-51.758,20.508
1584598909.321,16.602,19.531,33.691,-7.324,71.289
1584598909.325,45.898,20.508,36.133,94.238,46.387
1584598909.329,25.879,17.578,35.645,74.219,2.930
1584598909.333,-9.766,14.160,30.762,-34.180,9.766
1584598909.337,5.371,17.090,28.809,-35.645,28.320
1584598909.341,45.410,21.973,31.738,76.660,19.531
1584598909.345,41.504,21.484,30.762,87.891,50.781
1584598909.349,-1.465,18.555,28.809,-20.996,69.336
1584598909.352,0.488,19.043,29.297,-53.711,63.477
1584598909.356,47.363,21.484,28.320,54.688,58.594
1584598909.360,56.152,24.902,26.855,113.281,36.133
1584598909.364,13.184,22.949,25.879,24.902,41.504
1584598909.368,-3.906,20.508,25.391,-46.875,-13.184
1584598909.372,39.551,26.367,28.809,23.926,16.602
1584598909.376,59.082,29.785,30.762,107.910,34.180
1584598909.380,23.438,24.414,29.785,53.711,67.383
1584598909.384,-6.836,21.484,25.391,-46.875,105.469
1584598909.388,20.020,23.438,25.391,-15.625,31.738
1584598909.392,56.152,28.809,33.691,90.332,-27.344
1584598909.395,39.551,31.250,30.762,76.172,15.137
1584598909.399,-0.977,24.414,25.391,-27.344,42.480
1584598909.403,12.207,24.902,27.344,-32.715,6.836
1584598909.407,56.152,30.273,29.785,81.055,26.855
1584598909.411,48.340,23.926,31.250,99.121,-29.297
1584598909.415,-0.488,15.137,27.344,-19.531,-29.785
1584598909.419,-6.836,18.066,26.855,-65.918,20.020
1584598909.423,44.922,27.344,31.250,56.641,17.090
1584598909.427,60.059,26.855,32.715,129.395,21.484
1584598909.431,7.812,22.949,26.367,7.812,16.602
1584598909.435,-13.672,20.996,21.973,-91.797,75.684
1584598909.438,32.715,27.832,27.344,10.742,54.199
1584598909.442,60.547,33.691,27.344,128.906,6.836
1584598909.446,20.996,26.367,21.484,56.152,30.762
1584598909.450,-19.043,20.020,20.508,-71.777,21.484
1584598909.454,9.277,24.414,23.926,-20.508,5.371
1584598909.458,55.176,29.297,29.297,124.512,59.570
1584598909.462,37.109,25.879,28.320,93.750,55.664
1584598909.466,-15.625,22.461,25.879,-56.152,34.180
1584598909.470,0.000,24.902,29.785,-53.711,54.199
1584598909.474,57.129,30.273,37.109,95.703,30.762
1584598909.477,52.734,28.809,39.551,120.117,63.477
1584598909.481,-5.859,21.484,31.738,-23.926,71.777
1584598909.485,-13.672,21.484,29.297,-80.566,0.000
1584598909.489,40.039,28.320,35.156,51.270,20.996
1584598909.493,54.688,28.809,37.598,132.324,39.551
1584598909.497,5.859,21.973,30.762,16.602,5.859
1584598909.501,-20.996,18.555,25.391,-87.891,-4.395
1584598909.505,23.438,22.461,30.762,10.742,28.809
1584598909.509,58.105,26.855,34.668,131.836,15.625
1584598909.513,21.973,23.926,32.715,60.547,13.184
1584598909.517,-20.996,19.043,28.320,-76.660,52.734
1584598909.520,10.254,22.949,30.762,-36.621,46.387
1584598909.524,56.152,26.855,37.598,103.516,13.672
1584598909.528,41.016,24.902,32.715,84.473,37.109
1584598909.532,-3.906,24.414,27.344,-49.805,66.406
1584598909.536,3.418,26.855,27.344,-65.430,64.941
1584598909.540,53.711,30.273,30.273,72.266,84.473
1584598909.544,57.617,31.250,30.273,112.793,14.648
1584598909.548,3.906,26.367,25.879,-17.578,-26.367
1584598909.552,-9.277,24.902,25.391,-81.055,29.785
1584598909.556,45.410,33.203,29.297,33.203,53.223
1584598909.560,65.430,37.109,32.227,122.559,33.691
1584598909.563,17.578,28.320,31.738,26.855,-19.531
1584598909.567,-13.672,25.391,23.438,-89.844,-25.391
1584598909.571,44.434,37.109,19.043,-3.418,-1.465
1584598909.575,95.703,40.039,29.785,154.785,40.039
1584598909.579,37.598,24.414,35.156,87.402,31.250
1584598909.583,-34.668,16.113,31.738,-80.078,18.066
1584598909.587,-6.348,18.555,38.574,-47.363,69.336
1584598909.591,54.688,23.926,47.363,98.145,60.547
1584598909.595,40.527,22.461,47.363,88.867,-1.465
1584598909.599,-18.555,9.277,43.457,-53.711,44.922
1584598909.602,-9.766,9.766,45.410,-75.684,51.270
1584598909.606,47.363,15.625,51.270,62.500,1.953
1584598909.610,46.387,8.789,53.223,116.699,7.812
1584598909.614,-5.371,-2.441,50.293,0.977,-10.742
1584598909.618,-19.043,-5.371,49.805,-69.824,31.250
1584598909.622,26.367,4.883,56.641,41.016,85.449
1584598909.626,53.223,7.812,60.547,144.043,66.895
1584598909.630,10.742,-4.883,58.594,52.246,15.137
1584598909.634,-25.879,-11.719,59.570,-64.941,-30.762
1584598909.638,19.043,-7.812,66.406,12.207,-3.418
1584598909.642,61.523,-0.488,68.848,141.602,66.895
1584598909.645,34.180,-2.441,66.406,100.586,54.199
1584598909.649,-15.137,-14.160,62.012,-32.227,18.555
1584598909.653,2.441,-11.230,62.500,-18.066,29.297
1584598909.657,50.781,-2.441,67.383,116.699,75.684
1584598909.661,46.387,-4.883,64.453,134.766,69.824
1584598909.665,5.371,-11.230,61.523,14.648,3.418
1584598909.669,3.906,-5.371,57.617,-28.809,22.461
1584598909.673,54.688,2.441,59.570,84.961,32.227
1584598909.677,66.895,4.883,60.547,139.160,51.758
1584598909.681,11.230,3.418,53.711,35.645,24.902
1584598909.685,-11.719,0.488,52.246,-44.922,-8.301
1584598909.688,39.551,8.301,57.129,43.945,44.434
1584598909.692,72.266,15.625,55.664,141.602,35.156
1584598909.696,35.156,11.719,50.781,70.801,5.371
1584598909.700,-8.789,7.324,46.387,-51.758,26.367
1584598909.704,25.879,11.719,44.922,-8.789,9.277
1584598909.708,70.312,18.555,51.270,122.559,-28.320
1584598909.712,44.434,16.602,49.316,101.562,26.855
1584598909.716,-6.836,8.301,41.504,-25.879,1.465
1584598909.720,4.395,9.766,44.434,-36.133,-6.836
1584598909.724,59.082,18.066,48.828,87.402,32.227
1584598909.727,53.223,19.043,45.898,121.094,-7.324
1584598909.731,-3.418,14.648,37.598,4.395,-3.418
1584598909.735,-6.348,12.207,37.109,-54.199,11.719
1584598909.739,50.293,22.461,43.457,55.176,-23.926
1584598909.743,67.383,29.297,39.062,133.301,21.484
1584598909.747,14.648,22.461,32.227,40.039,63.477
1584598909.751,-9.766,18.066,34.180,-52.734,13.672
1584598909.755,41.016,23.926,38.574,18.066,36.621
1584598909.759,71.289,29.297,35.645,124.023,77.148
1584598909.763,32.227,27.344,30.273,70.801,43.945
1584598909.767,-16.602,22.461,29.785,-55.664,27.344
1584598909.770,12.695,27.344,31.250,-30.762,35.645
1584598909.774,62.500,34.180,33.203,98.633,39.062
1584598909.778,34.668,27.832,30.762,90.332,10.742
1584598909.782,-19.531,22.949,26.855,-28.320,-9.277
1584598909.786,-7.812,21.973,31.250,-41.016,11.230
1584598909.790,45.410,24.902,36.133,76.172,-5.371
1584598909.794,49.805,24.902,33.203,112.305,-8.789
1584598909.798,-4.883,19.043,28.809,0.000,47.363
1584598909.802,-18.555,17.090,28.809,-63.477,86.426
1584598909.806,38.086,22.949,31.738,38.574,65.430
1584598909.810,59.570,26.367,36.133,117.188,46.875
1584598909.813,11.230,24.902,31.250,29.297,18.066
1584598909.817,-23.438,21.484,23.438,-62.988,71.777
1584598909.821,20.508,21.484,29.297,0.000,42.969
1584598909.825,58.594,27.832,31.738,104.492,-42.480
1584598909.829,20.508,27.344,24.902,64.941,0.977
1584598909.833,-21.973,22.461,21.973,-47.852,48.340
1584598909.837,12.207,22.949,26.855,-32.227,27.832
1584598909.841,64.453,26.855,29.785,86.914,18.555
1584598909.845,43.457,26.367,25.391,94.238,7.324
1584598909.849,-14.160,20.996,19.043,-18.555,54.688
1584598909.852,-5.859,20.508,20.508,-55.664,47.363
1584598909.856,50.293,27.832,25.879,51.270,58.594
1584598909.860,52.734,31.250,27.832,115.234,85.449
1584598909.864,-1.953,22.949,23.926,21.484,5.859
1584598909.868,-18.555,23.438,19.531,-54.199,28.809
1584598909.872,37.109,33.691,25.391,29.297,34.668
1584598909.876,67.871,34.180,27.344,120.117,15.625
1584598909.880,22.949,24.414,21.973,52.246,34.180
1584598909.884,-20.508,19.531,21.484,-52.246,53.711
1584598909.888,20.996,24.902,22.949,-10.742,70.312
1584598909.892,62.988,29.785,23.438,104.004,74.219
1584598909.895,29.785,26.367,22.461,86.426,77.148
1584598909.899,-19.531,20.020,17.578,-43.457,35.645
1584598909.903,7.324,24.414,20.996,-48.828,17.090
1584598909.907,62.012,30.762,26.367,76.172,24.414
1584598909.911,50.293,29.785,26.367,94.238,20.020
1584598909.915,-9.277,23.926,25.879,-18.555,18.555
1584598909.919,-11.719,27.832,23.926,-62.012,35.156
1584598909.923,47.363,34.180,25.879,48.340,60.547
1584598909.927,57.129,32.715,30.273,114.746,1.465
1584598909.931,0.977,28.809,23.926,17.090,-65.430
1584598909.935,-28.809,24.414,15.625,-63.965,-14.648
1584598909.938,25.879,31.250,16.602,11.719,47.852
1584598909.942,64.453,32.715,19.531,100.586,37.598
1584598909.946,19.043,24.414,20.020,48.828,-2.441
1584598909.950,-23.926,23.926,19.531,-50.781,1.465
1584598909.954,17.578,27.832,21.973,-20.996,43.457
1584598909.958,66.406,31.250,24.414,88.379,15.625
1584598909.962,37.598,29.297,23.926,72.754,21.973
1584598909.966,-23.438,22.461,23.926,-38.086,26.367
1584598909.970,-6.836,23.926,26.367,-50.781,-32.227
1584598909.974,55.176,30.762,26.855,58.594,-21.973
1584598909.977,49.316,31.250,24.414,95.703,8.301
1584598909.981,-11.719,24.414,20.996,-3.906,57.617
1584598909.985,-20.996,17.578,21.973,-68.359,17.578
1584598909.989,40.039,24.902,26.855,20.996,8.789
1584598909.993,58.594,30.762,26.367,100.586,22.949
1584598909.997,2.930,28.320,23.926,22.461,-48.828
1584598910.001,-21.973,26.855,24.902,-67.383,-21.484
1584598910.005,31.738,31.250,28.320,-8.789,7.812
1584598910.009,64.941,39.551,32.227,107.910,55.176
1584598910.013,22.949,33.203,30.762,73.730,20.996
1584598910.017,-20.020,24.414,28.320,-49.805,-25.879
1584598910.020,11.230,30.273,28.809,-29.785,36.133
1584598910.024,63.477,34.668,31.250,87.891,79.102
1584598910.028,46.387,31.250,30.762,86.426,65.430
1584598910.032,-12.695,26.855,22.949,-27.832,12.695
1584598910.036,-6.348,24.902,20.508,-59.082,-7.812
1584598910.040,48.828,26.367,26.855,49.316,14.648
1584598910.044,54.199,34.668,27.832,106.445,66.895
1584598910.048,0.000,31.738,23.438,8.789,70.801
1584598910.052,-12.695,25.391,23.438,-74.707,13.184
1584598910.056,60.547,34.668,28.320,24.902,-0.977
1584598910.060,81.055,36.133,31.250,120.117,24.902
1584598910.063,8.301,28.809,29.785,33.691,16.602
1584598910.067,-29.785,27.344,28.809,-65.918,26.855
1584598910.071,13.672,28.320,35.156,-17.090,45.410
1584598910.075,58.594,30.273,39.062,99.609,-2.930
1584598910.079,36.621,24.902,41.016,83.496,16.602
1584598910.083,-22.949,16.602,38.574,-45.898,50.293
1584598910.087,3.906,23.926,31.738,-58.105,17.090
1584598910.091,66.406,31.250,33.203,60.059,35.645
1584598910.095,42.480,26.855,35.156,77.148,27.344
1584598910.099,-16.602,25.391,31.738,-29.785,6.836
1584598910.102,-9.277,26.855,31.250,-63.965,48.340
1584598910.106,46.875,31.738,32.227,36.621,36.133
1584598910.110,42.480,28.809,32.227,95.703,32.715
1584598910.114,-20.508,23.926,29.297,6.836,-10.254
1584598910.118,-30.762,24.414,27.832,-75.684,-35.645
1584598910.122,30.762,26.367,31.250,-3.418,4.883
1584598910.126,54.199,26.855,31.738,88.867,40.039
1584598910.130,8.301,23.926,27.832,43.457,116.699
1584598910.134,-25.391,24.902,25.879,-56.641,69.336
1584598910.138,18.066,25.391,27.832,-32.715,14.648
1584598910.142,62.012,23.926,32.227,86.914,53.711
1584598910.145,35.156,26.855,35.156,89.844,23.438
1584598910.149,-16.113,20.996,27.344,-43.457,8.789
1584598910.153,5.859,19.531,21.973,-63.477,64.453
1584598910.157,67.871,30.762,25.879,61.523,45.898
1584598910.161,54.199,34.180,28.320,95.215,7.324
1584598910.165,-11.719,23.926,27.344,-8.301,11.230
1584598910.169,-12.695,21.484,27.344,-66.406,-30.762
1584598910.173,49.316,28.809,33.691,32.227,32.227
1584598910.177,61.035,29.297,36.133,105.957,34.180
1584598910.181,9.766,26.367,29.297,29.785,39.062
1584598910.185,-19.043,20.020,25.879,-62.500,99.121
1584598910.188,34.668,22.949,31.250,-7.324,49.316
1584598910.192,77.148,30.273,35.645,101.074,31.250
1584598910.196,27.832,26.855,33.691,63.965,28.320
1584598910.200,-25.391,19.531,32.715,-41.504,-4.883
1584598910.204,13.184,23.926,30.273,-30.762,25.391
1584598910.208,69.336,30.762,31.250,82.031,42.969
1584598910.212,44.922,24.902,32.715,83.496,3.418
1584598910.216,-15.625,19.043,30.273,-27.832,-14.160
1584598910.220,-0.977,21.973,25.391,-56.641,19.531
1584598910.224,59.570,29.785,27.832,50.293,54.688
1584598910.227,52.734,30.273,30.762,94.238,18.555
1584598910.231,-8.301,24.902,28.320,-2.441,-37.598
1584598910.235,-17.090,25.879,31.250,-55.664,-0.488
1584598910.239,45.410,30.762,33.691,22.949,35.156
1584598910.243,66.406,32.227,33.203,103.027,35.156
1584598910.247,2.441,26.367,31.250,41.016,45.410
1584598910.251,-24.902,23.438,28.809,-50.293,28.809
1584598910.255,38.086,34.180,30.762,-6.348,47.852
1584598910.259,72.266,37.109,30.273,87.402,91.309
1584598910.263,26.855,27.344,30.762,58.105,62.500
1584598910.267,-17.578,22.949,30.273,-31.250,-30.273
1584598910.270,10.742,26.855,29.297,-42.480,-36.133
1584598910.274,62.500,31.250,28.809,50.781,-5.859
1584598910.278,48.828,30.273,28.809,84.473,91.309
1584598910.282,-7.812,25.879,28.320,-5.371,108.398
1584598910.286,-10.254,23.438,28.809,-60.059,-11.230
1584598910.290,48.340,29.785,32.715,33.691,-28.320
1584598910.294,59.082,30.762,33.203,102.051,3.906
1584598910.298,1.953,24.902,27.832,28.809,57.617
1584598910.302,-13.672,23.438,23.438,-58.105,56.641
1584598910.306,39.551,21.484,30.273,2.930,15.137
1584598910.310,80.566,21.973,40.039,120.605,30.273
1584598910.313,47.852,30.762,30.273,75.195,23.438
1584598910.317,-17.090,30.273,17.090,-60.059,8.789
1584598910.321,14.160,35.645,21.484,-51.758,4.883
1584598910.325,67.871,49.805,23.438,62.012,-30.762
1584598910.329,28.809,42.969,19.531,56.152,-19.531
1584598910.333,-32.715,30.762,19.043,-54.199,26.855
1584598910.337,-8.301,35.645,18.555,-74.707,25.391
1584598910.341,57.617,43.945,21.484,41.504,47.852
1584598910.345,41.504,36.621,24.414,83.984,81.055
1584598910.349,-13.184,27.832,22.949,3.906,62.500
1584598910.352,-12.695,29.785,22.949,-48.828,-10.254
1584598910.356,39.062,33.691,25.879,22.461,-45.410
1584598910.360,60.547,33.203,27.832,97.656,1.953
1584598910.364,3.906,28.809,22.461,28.320,25.391
1584598910.368,-26.367,25.879,19.043,-56.641,29.297
1584598910.372,33.203,33.203,21.484,-5.859,22.461
1584598910.376,66.895,36.621,25.879,94.238,-18.066
1584598910.380,17.090,28.320,24.414,57.617,-51.270
1584598910.384,-18.555,28.320,23.438,-48.828,0.488
1584598910.388,31.738,32.227,25.391,-24.414,21.973
1584598910.392,71.289,35.645,27.832,78.613,36.133
1584598910.395,25.879,30.273,28.320,83.008,62.500
1584598910.399,-23.926,20.508,24.414,-25.879,34.180
1584598910.403,-1.465,21.973,25.879,-66.895,12.695
1584598910.407,56.152,29.297,28.809,41.504,24.414
1584598910.411,58.105,29.297,28.320,92.285,21.973
1584598910.415,2.441,21.484,26.855,2.930,0.488
1584598910.419,-1.465,20.996,30.273,-62.012,37.109
1584598910.423,54.688,26.855,32.715,20.508,102.539
1584598910.427,74.219,26.855,34.668,93.262,19.043
1584598910.431,10.254,19.531,33.203,29.297,-27.832
1584598910.435,-41.504,19.043,22.949,-51.758,11.230
1584598910.438,21.484,24.902,26.367,0.977,23.926
1584598910.442,62.500,26.367,33.691,95.703,72.266
1584598910.446,15.625,18.555,30.762,64.453,38.574
1584598910.450,-27.344,11.230,27.832,-41.016,31.738
1584598910.454,3.418,9.277,34.180,-26.367,48.828
1584598910.458,79.590,12.207,41.504,97.168,-5.859
1584598910.462,80.078,24.414,38.086,116.699,-15.625
1584598910.466,-7.812,33.203,22.461,-13.672,75.195
1584598910.470,-13.184,31.738,14.648,-69.824,84.961
1584598910.474,55.176,44.922,17.578,37.109,38.574
1584598910.477,54.199,50.781,13.672,82.031,-2.441
1584598910.481,-10.742,41.504,7.812,-13.184,-2.930
1584598910.485,-23.438,45.898,3.906,-91.309,40.527
1584598910.489,29.785,53.711,3.418,-16.602,36.133
1584598910.493,45.898,53.711,3.418,88.379,92.773
1584598910.497,-13.672,47.852,-4.395,1.465,68.848
1584598910.501,-44.434,44.922,-11.719,-104.492,-40.527
1584598910.505,18.555,54.199,-10.254,-52.734,-13.184
1584598910.509,52.734,60.059,-5.371,39.062,13.672
1584598910.513,4.883,52.734,-8.789,27.344,-23.438
1584598910.517,-36.133,50.293,-17.090,-88.867,13.672
1584598910.520,-7.324,57.617,-15.137,-101.074,59.082
1584598910.524,52.246,63.477,-14.648,19.043,46.875
1584598910.528,43.457,62.500,-19.043,52.734,50.293
1584598910.532,-5.371,60.059,-20.996,-66.406,31.250
1584598910.536,-5.371,57.617,-20.508,-120.117,-15.137
1584598910.540,27.344,59.082,-20.508,-14.648,-29.785
1584598910.544,53.223,62.012,-19.531,58.105,-9.277
1584598910.548,23.926,56.641,-17.090,-12.695,34.668
1584598910.552,1.953,53.711,-14.648,-85.449,43.945
1584598910.556,53.223,57.129,-8.789,-0.488,31.738
1584598910.560,73.242,54.199,-1.465,97.168,48.828
1584598910.563,20.020,48.828,-0.977,28.320,9.277
1584598910.567,-8.301,49.316,-5.371,-87.402,11.230
1584598910.571,38.574,48.828,1.465,-43.457,78.613
1584598910.575,80.078,50.293,8.301,85.938,49.316
1584598910.579,53.223,49.805,8.301,74.707,1.465
1584598910.583,3.418,42.969,5.371,-37.598,40.527
1584598910.587,7.812,43.457,5.371,-69.824,47.363
1584598910.591,65.918,46.387,12.695,38.574,25.391
1584598910.595,60.547,45.898,13.184,87.402,41.992
1584598910.599,6.348,36.621,10.742,-34.180,8.789
1584598910.602,-0.488,33.203,9.766,-109.863,9.766
1584598910.606,44.922,41.992,14.160,11.230,22.949
1584598910.610,51.758,45.410,17.578,96.680,3.418
1584598910.614,14.160,37.109,14.160,3.906,61.035
1584598910.618,-8.301,30.762,12.695,-74.219,42.480
1584598910.622,32.715,40.527,12.695,-14.160,-0.977
1584598910.626,82.031,46.875,15.625,89.355,53.223
1584598910.630,19.043,36.133,13.184,41.504,39.062
1584598910.634,-33.203,25.879,11.230,-82.031,19.043
1584598910.638,27.832,30.762,17.578,-27.344,47.852
1584598910.642,76.172,35.645,21.484,89.355,73.730
1584598910.645,46.875,30.273,20.508,67.383,104.980
1584598910.649,5.859,21.484,20.996,-27.832,41.016
1584598910.653,20.996,25.879,21.973,-64.453,20.020
1584598910.657,57.129,34.180,26.855,58.594,82.520
1584598910.661,51.758,30.273,22.949,102.539,48.828
1584598910.665,2.441,24.414,14.648,-8.301,21.484
1584598910.669,-4.883,23.926,17.578,-69.336,33.203
1584598910.673,59.082,31.738,20.508,25.391,29.297
1584598910.677,63.965,32.227,23.926,104.980,-20.508
1584598910.681,-0.488,24.414,21.973,16.113,-68.359
1584598910.685,-20.508,23.926,14.648,-81.055,-22.461
1584598910.688,27.344,28.809,16.602,-4.395,-4.395
1584598910.692,62.988,28.320,18.555,94.238,-1.465
1584598910.696,32.227,19.531,19.043,36.621,7.324
1584598910.700,-3.906,20.020,18.555,-64.453,51.270
1584598910.704,9.766,23.926,20.020,-36.621,81.055
1584598910.708,50.781,30.762,19.531,80.566,74.219
1584598910.712,37.598,28.320,16.602,78.613,13.672
1584598910.716,4.395,20.020,15.625,-35.645,9.766
1584598910.720,16.602,24.414,17.578,-59.082,19.531
1584598910.724,36.133,28.320,22.461,58.105,18.066
1584598910.727,29.297,25.879,23.438,101.074,46.387
1584598910.731,-7.812,19.531,18.555,-10.254,25.391
1584598910.735,-10.742,16.113,17.578,-83.496,-9.277
1584598910.739,47.852,21.484,22.949,20.508,8.789
1584598910.743,70.312,26.367,26.855,115.234,44.434
1584598910.747,13.672,22.949,26.367,31.250,15.625
1584598910.751,-16.113,18.555,23.438,-74.707,21.973
1584598910.755,31.250,22.461,24.902,-14.648,-26.855
1584598910.759,70.312,32.715,28.809,105.469,-15.137
1584598910.763,45.410,27.344,27.832,78.613,22.461
1584598910.767,-6.348,17.578,22.461,-38.086,6.836
1584598910.770,19.043,21.484,20.996,-25.391,-49.316
1584598910.774,73.242,27.832,29.297,107.422,-20.508
1584598910.778,51.270,26.367,31.738,119.629,62.500
1584598910.782,1.953,17.578,27.344,0.488,31.250
1584598910.786,5.371,20.996,27.344,-35.156,-24.414
1584598910.790,61.035,28.809,31.250,79.102,27.832
1584598910.794,60.059,26.855,31.738,128.906,68.359
1584598910.798,7.812,19.043,26.367,23.438,47.363
1584598910.802,-1.465,20.508,21.973,-56.152,24.414
1584598910.806,40.039,30.762,27.344,36.133,25.879
1584598910.810,63.477,31.250,27.344,137.695,7.324
1584598910.813,29.785,21.973,26.367,75.195,23.438
1584598910.817,-8.301,19.531,23.926,-35.645,62.012
1584598910.821,28.809,25.391,22.461,15.137,27.832
1584598910.825,73.242,28.809,26.855,137.695,20.508
1584598910.829,42.480,26.855,22.461,95.703,37.109
1584598910.833,-1.953,20.508,19.043,-33.691,-12.695
1584598910.837,16.113,23.926,24.414,-24.414,0.000
1584598910.841,68.848,31.738,29.297,102.539,31.250
1584598910.845,61.523,32.715,24.902,118.652,16.602
1584598910.849,3.418,27.344,22.461,8.301,4.883
1584598910.852,-0.488,27.344,23.438,-45.410,18.066
1584598910.856,55.176,37.598,24.902,60.059,65.430
1584598910.860,71.777,39.551,27.344,142.090,54.688
1584598910.864,22.461,31.250,24.414,57.129,67.383
1584598910.868,-5.859,25.879,24.414,-32.715,59.082
1584598910.872,32.715,28.809,29.297,27.344,52.734
1584598910.876,61.523,32.227,29.297,131.836,65.430
1584598910.880,34.668,30.762,21.973,77.148,38.086
1584598910.884,0.000,27.344,17.578,-41.504,0.977
1584598910.888,23.438,28.809,21.484,-8.789,65.430
1584598910.892,63.477,32.715,25.879,100.098,57.129
1584598910.895,45.410,32.227,25.391,97.656,-10.254
1584598910.899,-3.906,25.879,22.949,-1.465,1.465
1584598910.903,7.324,26.367,25.879,-28.320,24.902
1584598910.907,52.246,31.250,31.738,82.520,36.621
1584598910.911,49.805,31.738,29.297,126.953,23.926
1584598910.915,1.953,28.320,21.973,17.578,0.488
1584598910.919,-2.930,29.785,18.066,-59.570,28.320
1584598910.923,56.641,39.062,22.461,41.992,23.926
1584598910.927,67.383,36.133,30.762,133.301,53.223
1584598910.931,7.812,18.555,35.156,47.852,50.781
1584598910.935,-19.043,13.184,36.621,-62.988,-11.719
1584598910.938,21.484,25.879,36.133,-4.883,30.273
1584598910.942,43.457,29.785,35.645,105.469,39.062
1584598910.946,27.344,23.438,33.691,76.660,23.926
1584598910.950,-5.859,18.555,32.227,-27.832,26.367
1584598910.954,15.137,18.066,33.691,-30.273,-7.324
1584598910.958,52.734,19.531,36.133,83.008,7.812
1584598910.962,35.156,16.602,31.738,104.492,29.785
1584598910.966,0.000,10.742,27.344,3.906,55.176
1584598910.970,9.277,12.695,32.715,-35.156,87.402
1584598910.974,49.316,15.625,36.621,70.312,18.555
1584598910.977,50.293,10.742,33.691,126.953,-5.371
1584598910.981,9.277,12.207,27.832,20.508,37.109
1584598910.985,0.000,18.555,28.320,-55.664,52.246
1584598910.989,52.246,27.832,27.832,28.809,10.254
1584598910.993,61.523,34.180,27.832,125.488,-27.832
1584598910.997,14.648,28.809,26.367,60.059,28.809
1584598911.001,-11.719,25.879,24.902,-55.176,32.227
1584598911.005,20.508,30.273,30.273,-4.395,14.648
1584598911.009,57.129,37.598,29.785,112.793,63.477
1584598911.013,43.945,40.527,26.855,92.285,86.426
1584598911.017,4.395,35.156,28.320,-25.879,23.926
1584598911.020,19.531,34.668,31.250,-26.855,-9.277
1584598911.024,67.383,39.551,31.250,100.586,36.133
1584598911.028,55.664,35.156,31.250,114.746,85.938
1584598911.032,-1.953,28.809,25.391,-13.184,85.938
1584598911.036,-1.953,31.250,22.949,-61.035,72.266
1584598911.040,41.992,33.203,31.738,59.570,10.742
1584598911.044,47.363,26.367,34.180,123.535,-47.363
1584598911.048,-3.418,12.695,26.855,26.855,-12.695
1584598911.052,-19.531,7.324,22.949,-58.105,-3.906
1584598911.056,36.133,14.648,26.855,14.648,57.617
1584598911.060,62.988,21.973,29.785,111.328,78.613
1584598911.063,20.996,14.160,26.367,54.199,22.949
1584598911.067,-9.766,6.836,22.461,-60.547,49.316
1584598911.071,23.438,17.090,22.949,-32.227,14.648
1584598911.075,54.688,25.391,27.832,75.684,-18.066
1584598911.079,40.039,20.020,28.809,61.035,70.312
1584598911.083,0.488,13.184,24.902,-54.688,55.176
1584598911.087,7.324,14.160,30.273,-66.406,14.160
1584598911.091,53.223,23.438,39.062,68.359,20.996
1584598911.095,50.293,24.902,35.645,105.469,0.000
1584598911.099,-5.371,18.066,23.926,-18.066,20.020
1584598911.102,-2.930,18.555,18.555,-82.520,2.441
1584598911.106,56.641,31.738,31.250,22.949,7.324
1584598911.110,40.527,35.645,39.062,86.426,-1.953
1584598911.114,-29.297,28.809,32.715,-16.113,-34.180
1584598911.118,-65.918,20.996,33.203,-110.840,10.742
1584598911.122,-31.738,29.297,34.668,-42.969,44.434
1584598911.126,-5.371,34.180,33.203,49.316,26.855
1584598911.130,-61.035,16.602,40.039,-21.973,-10.742
1584598911.134,-113.281,8.789,25.879,-149.902,20.996
1584598911.138,-80.566,16.113,15.625,-129.395,25.879
1584598911.142,-50.293,15.137,42.480,-18.066,-2.930
1584598911.145,-84.473,8.301,57.617,-29.297,24.414
1584598911.149,-125.000,5.371,56.641,-135.254,39.551
1584598911.153,-114.746,14.160,54.688,-146.484,24.902
1584598911.157,-73.242,19.043,59.082,-42.480,7.324
1584598911.161,-65.918,13.184,64.941,-1.465,-3.906
1584598911.165,-110.352,-1.465,56.641,-84.961,49.316
1584598911.169,-133.789,-11.719,51.270,-159.180,42.480
1584598911.173,-88.867,-10.742,52.734,-86.426,-0.488
1584598911.177,-62.012,-4.395,42.969,-0.488,76.660
1584598911.181,-102.051,-2.930,44.434,-53.223,104.492
1584598911.185,-125.000,-9.766,56.152,-137.207,39.062
1584598911.188,-70.312,-3.906,64.941,-81.543,43.945
1584598911.192,-33.691,6.348,66.406,26.367,87.402
1584598911.196,-69.824,2.441,55.176,6.836,19.043
1584598911.200,-94.238,-2.930,48.340,-80.566,-45.410
1584598911.204,-57.129,0.000,54.688,-78.613,-7.812
1584598911.208,-18.066,-1.953,60.059,26.855,19.043
1584598911.212,-25.879,-5.371,54.688,58.105,38.574
1584598911.216,-64.941,-4.395,53.711,-32.227,86.426
1584598911.220,-58.594,-9.766,53.223,-77.148,99.609
1584598911.224,-0.977,-4.395,53.711,30.762,31.738
1584598911.227,17.090,5.859,55.664,103.027,-8.789
1584598911.231,-31.738,0.977,47.363,32.227,26.367
1584598911.235,-52.734,0.000,41.992,-43.945,20.508
1584598911.239,0.977,2.930,43.945,12.207,26.855
1584598911.243,37.109,4.883,50.293,101.074,55.664
1584598911.247,-2.930,6.348,48.340,33.203,20.020
1584598911.251,-36.621,3.906,35.645,-70.312,16.602
1584598911.255,10.742,5.371,33.203,-15.137,77.148
1584598911.259,58.594,12.695,40.039,98.145,25.391
1584598911.263,25.391,11.230,26.367,60.059,13.184
1584598911.267,-23.926,8.789,15.625,-52.246,40.039
1584598911.270,7.812,15.137,29.785,-41.504,64.941
1584598911.274,65.430,17.090,38.574,83.496,83.008
1584598911.278,46.875,16.113,35.156,103.027,101.074
1584598911.282,-11.230,12.207,29.297,-0.977,81.055
1584598911.286,-0.977,8.301,26.855,-37.598,40.527
1584598911.290,63.477,15.625,26.855,67.383,62.012
1584598911.294,66.895,20.020,28.320,122.559,35.156
1584598911.298,10.742,11.719,24.902,48.340,-20.996
1584598911.302,-3.418,7.324,17.090,-33.691,-2.441
1584598911.306,57.617,18.066,23.926,36.621,37.109
1584598911.310,91.797,20.996,28.809,129.395,40.039
1584598911.313,39.551,10.742,20.996,56.641,20.508
1584598911.317,3.418,2.930,18.066,-36.621,27.344
1584598911.321,55.176,6.836,24.902,15.137,24.414
1584598911.325,102.539,19.043,25.879,124.512,20.508
1584598911.329,65.918,18.066,22.949,98.633,12.207
1584598911.333,12.695,7.812,22.949,-12.207,32.715
1584598911.337,44.434,12.695,20.996,-22.461,19.531
1584598911.341,98.633,23.438,24.414,92.285,13.184
1584598911.345,75.195,18.066,23.926,116.211,52.734
1584598911.349,15.137,10.742,17.578,6.836,3.906
1584598911.352,24.414,17.090,18.066,-32.715,-1.465
1584598911.356,88.867,29.297,20.996,69.336,48.340
1584598911.360,89.844,32.227,23.926,129.395,65.918
1584598911.364,27.832,29.785,18.555,40.527,57.617
1584598911.368,8.789,33.691,13.184,-40.527,0.977
1584598911.372,63.965,36.621,20.508,42.480,-7.812
1584598911.376,95.215,38.086,22.949,137.207,-42.969
1584598911.380,44.434,31.738,15.625,71.777,-38.086
1584598911.384,0.977,25.879,14.160,-32.715,7.324
1584598911.388,46.387,33.203,19.531,5.371,-11.719
1584598911.392,95.703,36.621,24.414,115.723,-30.762
1584598911.395,58.105,32.227,22.949,98.145,15.625
1584598911.399,-0.488,27.344,15.625,-23.438,49.805
1584598911.403,30.273,33.203,16.113,-32.227,30.762
1584598911.407,91.309,35.645,21.973,92.285,5.371
1584598911.411,90.332,32.715,19.043,123.047,21.484
1584598911.415,18.555,32.227,12.695,0.000,19.531
1584598911.419,-10.742,31.250,12.207,-65.918,6.836
1584598911.423,53.711,36.133,16.602,35.645,31.250
1584598911.427,70.312,33.691,18.555,98.145,32.227
1584598911.431,10.742,23.926,19.043,17.578,-6.348
1584598911.435,-14.160,22.949,22.949,-61.035,-6.836
1584598911.438,40.527,29.297,24.414,7.812,13.184
1584598911.442,77.148,29.785,23.926,99.609,28.809
1584598911.446,30.273,24.902,23.926,43.945,20.996
1584598911.450,-16.602,22.461,23.438,-55.664,-14.648
1584598911.454,30.762,24.902,23.438,-18.066,34.180
1584598911.458,78.125,28.809,24.414,93.750,39.551
1584598911.462,41.504,25.879,24.414,80.566,23.438
1584598911.466,-18.066,17.578,21.973,-31.250,52.734
1584598911.470,7.812,23.438,22.461,-41.992,46.875
1584598911.474,70.801,30.762,27.344,71.777,14.648
1584598911.477,61.523,26.855,29.297,103.027,-10.254
1584598911.481,0.000,25.391,26.367,0.977,-5.859
1584598911.485,-5.371,24.902,22.461,-57.617,-19.043
1584598911.489,61.523,29.785,23.438,38.086,7.812
1584598911.493,82.031,33.203,23.438,111.328,8.789
1584598911.497,20.996,25.879,20.508,28.320,-26.855
1584598911.501,-13.184,20.020,19.531,-61.035,-20.508
1584598911.505,42.969,28.809,20.508,-1.465,-6.348
1584598911.509,83.496,38.574,28.809,97.168,17.090
1584598911.513,38.086,34.180,28.809,58.594,84.473
1584598911.517,-12.695,29.297,22.949,-43.457,85.938
1584598911.520,26.855,32.715,26.855,-26.367,20.020
1584598911.524,77.148,35.156,27.344,83.984,58.105
1584598911.528,50.293,29.785,24.414,89.355,69.336
1584598911.532,-8.301,24.414,24.902,-20.020,15.137
1584598911.536,1.953,25.391,24.414,-54.199,41.504
1584598911.540,63.477,30.273,23.926,50.293,72.754
1584598911.544,64.941,30.273,22.949,101.562,1.953
1584598911.548,3.418,19.531,17.090,4.395,-2.930
1584598911.552,-15.137,21.484,14.160,-71.289,3.906
1584598911.556,43.945,28.809,20.508,15.137,0.000
1584598911.560,75.195,32.715,24.414,111.328,71.289
1584598911.563,16.113,28.320,20.508,45.410,22.461
1584598911.567,-25.391,21.973,20.508,-55.176,17.090
1584598911.571,28.809,29.785,24.414,-5.371,55.176
1584598911.575,84.473,34.180,23.926,104.980,9.766
1584598911.579,43.457,26.855,24.414,74.219,42.969
1584598911.583,-26.367,17.578,23.438,-50.293,7.812
1584598911.587,5.859,18.555,25.879,-43.457,-6.348
1584598911.591,72.266,23.926,34.668,84.961,72.754
1584598911.595,57.617,23.926,33.203,94.238,41.016
1584598911.599,-11.230,19.043,25.879,-26.855,31.250
1584598911.602,-6.836,20.508,26.367,-56.152,28.809
1584598911.606,62.012,25.879,30.273,54.199,-22.461
1584598911.610,68.359,22.949,30.762,104.980,-50.293
1584598911.614,6.348,9.766,28.320,21.973,-11.719
1584598911.618,-11.230,2.441,28.320,-56.152,83.008
1584598911.622,49.316,11.230,33.691,8.301,7.812
1584598911.626,81.055,17.090,35.645,101.562,-20.996
1584598911.630,25.879,14.648,29.297,49.316,48.828
1584598911.634,-15.625,14.648,28.320,-46.387,48.340
1584598911.638,30.762,18.066,29.297,-15.625,15.137
1584598911.642,80.566,23.926,30.273,87.891,20.996
1584598911.645,52.734,24.902,31.250,83.008,66.406
1584598911.649,-8.789,17.578,24.902,-23.926,34.668
1584598911.653,13.184,19.043,22.949,-39.551,-21.484
1584598911.657,71.777,26.855,25.879,66.895,65.430
1584598911.661,54.688,24.902,28.809,98.145,41.992
1584598911.665,-11.230,17.578,27.344,3.906,-3.418
1584598911.669,-11.230,24.902,24.414,-51.270,55.664
1584598911.673,58.594,40.039,28.809,37.109,29.297
1584598911.677,74.219,38.574,29.785,103.027,-88.379
1584598911.681,13.672,34.180,21.484,25.391,-67.383
1584598911.685,-14.160,34.180,20.020,-59.570,1.465
1584598911.688,45.898,44.434,25.391,0.000,7.324
1584598911.692,83.496,47.852,29.785,98.633,12.695
1584598911.696,32.715,34.668,26.367,60.059,-2.441
1584598911.700,-14.648,28.809,23.926,-41.504,-19.531
1584598911.704,24.902,34.180,28.320,-24.902,11.230
1584598911.708,82.520,41.992,27.344,83.984,38.574
1584598911.712,70.801,38.086,18.555,97.656,27.344
1584598911.716,17.578,27.832,20.996,6.348,20.020
1584598911.720,11.230,28.320,28.320,-39.062,-2.441
1584598911.724,52.246,33.203,30.273,42.969,-20.020
1584598911.727,48.828,27.832,32.227,85.449,-10.254
1584598911.731,-16.113,18.555,30.762,-5.859,39.062
1584598911.735,-26.367,17.090,31.738,-54.688,82.520
1584598911.739,38.086,17.578,40.039,39.551,85.449
1584598911.743,52.734,16.602,43.945,109.375,77.637
1584598911.747,-4.883,13.184,44.434,31.738,81.543
1584598911.751,-23.438,8.301,47.852,-45.410,46.875
1584598911.755,40.039,11.719,52.734,18.555,47.852
1584598911.759,80.566,17.578,53.223,117.676,75.195
1584598911.763,39.551,15.137,50.293,84.961,46.875
1584598911.767,-4.395,8.301,49.805,-7.812,4.883
1584598911.770,38.574,9.766,51.270,20.020,60.059
1584598911.774,99.609,13.184,56.152,128.418,105.957
1584598911.778,83.496,13.184,59.082,134.766,48.340
1584598911.782,33.691,13.672,50.293,41.504,11.230
1584598911.786,45.898,17.578,42.480,15.625,41.504
1584598911.790,107.422,23.438,48.340,119.141,25.391
1584598911.794,105.469,24.414,54.688,166.016,56.641
1584598911.798,46.387,16.113,55.176,74.707,55.176
1584598911.802,44.922,15.137,52.734,12.695,-49.805
1584598911.806,112.305,23.926,53.223,98.145,-19.531
1584598911.810,135.742,31.250,52.734,173.828,29.785
1584598911.813,69.824,23.926,48.828,97.656,42.969
1584598911.817,38.574,13.672,45.898,12.207,57.617
1584598911.821,102.051,24.414,47.852,65.918,50.781
1584598911.825,133.789,32.715,51.270,157.227,23.438
1584598911.829,82.520,25.391,49.805,123.047,58.105
1584598911.833,32.715,20.996,45.898,22.461,64.453
1584598911.837,75.684,20.508,50.293,32.715,31.250
1584598911.841,139.648,19.531,50.781,142.090,14.160
1584598911.845,112.793,15.625,43.457,145.020,1.465
1584598911.849,38.574,8.789,37.598,35.156,5.371
1584598911.852,42.969,9.766,40.039,4.395,0.488
1584598911.856,103.516,15.137,42.969,99.609,-15.625
1584598911.860,100.586,13.672,41.016,141.113,-25.391
1584598911.864,30.762,8.789,36.621,47.363,-23.438
1584598911.868,12.695,10.742,35.645,-20.996,25.879
1584598911.872,85.449,18.066,41.016,60.547,35.156
1584598911.876,115.234,19.531,42.969,140.625,79.590
1584598911.880,51.270,16.113,34.668,73.730,104.492
1584598911.884,4.883,16.602,31.250,-20.508,24.902
1584598911.888,60.059,20.996,35.156,27.344,23.438
1584598911.892,109.375,26.855,38.086,130.371,54.199
1584598911.895,63.477,34.180,33.203,98.633,62.988
1584598911.899,0.000,31.250,26.367,-9.766,27.832
1584598911.903,32.715,30.273,28.809,-5.859,-36.133
1584598911.907,99.121,38.574,35.645,103.027,18.555
1584598911.911,79.102,36.133,34.668,112.793,53.223
1584598911.915,13.184,30.762,30.273,1.953,27.344
1584598911.919,20.508,34.668,31.738,-36.621,28.320
1584598911.923,85.938,34.180,33.691,59.570,20.508
1584598911.927,89.355,35.156,37.109,113.770,17.578
1584598911.931,21.973,35.645,38.574,28.809,18.066
1584598911.935,-4.883,29.785,36.133,-45.410,75.684
1584598911.938,60.547,33.691,35.156,21.484,30.762
1584598911.942,96.191,39.062,35.645,111.816,-13.184
1584598911.946,38.574,33.203,36.133,68.848,48.828
1584598911.950,-15.137,28.320,29.297,-37.109,100.586
1584598911.954,32.715,31.250,28.320,-13.672,68.848
1584598911.958,86.914,35.645,33.691,86.914,20.996
1584598911.962,42.969,31.250,32.227,75.684,37.109
1584598911.966,-22.949,25.879,27.344,-22.949,35.156
1584598911.970,2.930,30.273,26.367,-41.992,49.805
1584598911.974,69.824,38.574,32.715,59.082,34.180
1584598911.977,61.035,41.016,34.180,95.703,18.555
1584598911.981,-5.859,37.109,29.297,1.953,45.410
1584598911.985,-8.301,35.156,29.785,-45.898,70.312
1584598911.989,58.594,40.527,31.738,40.039,44.922
1584598911.993,72.754,40.039,30.273,107.910,4.395
1584598911.997,5.859,31.250,29.297,26.367,-7.324
1584598912.001,-25.391,30.762,25.391,-62.012,9.766
1584598912.005,40.527,33.203,25.391,-2.930,46.387
1584598912.009,84.473,32.715,29.297,86.914,11.230
1584598912.013,30.762,29.297,26.367,43.945,-17.090
1584598912.017,-25.391,26.855,23.438,-55.176,8.301
1584598912.020,26.367,34.180,28.809,-29.785,-11.230
1584598912.024,87.891,39.062,30.273,75.684,6.348
1584598912.028,51.758,40.039,27.832,72.266,0.977
1584598912.032,-16.113,36.133,30.762,-24.902,45.898
1584598912.036,2.441,32.715,30.762,-44.434,132.324
1584598912.040,75.684,35.156,30.273,59.570,104.980
1584598912.044,88.867,35.156,33.691,116.699,-11.230
1584598912.048,15.137,35.156,25.879,23.926,-23.926
1584598912.052,-29.297,37.109,16.113,-66.895,7.324
1584598912.056,35.645,42.480,21.484,4.395,25.879
1584598912.060,65.918,42.969,24.902,80.078,73.730
1584598912.063,0.977,37.598,23.438,11.719,43.457
1584598912.067,-35.156,33.203,23.438,-65.918,22.949
1584598912.071,27.344,34.180,22.949,-16.602,52.246
1584598912.075,82.031,37.109,26.855,82.520,50.781
1584598912.079,37.109,35.156,25.391,60.059,20.020
1584598912.083,-25.391,34.668,22.949,-33.691,51.758
1584598912.087,15.625,34.668,25.391,-29.297,31.250
1584598912.091,79.102,37.598,25.879,66.895,-4.395
1584598912.095,56.641,39.551,23.438,76.660,-13.184
1584598912.099,-16.602,34.668,19.531,-20.996,21.973
1584598912.102,-6.348,30.762,22.461,-55.664,37.598
1584598912.106,71.777,40.527,28.809,33.691,16.113
1584598912.110,73.242,46.875,32.227,85.938,-20.020
1584598912.114,-2.441,36.133,29.785,9.277,14.648
1584598912.118,-17.578,29.297,28.320,-56.152,66.406
1584598912.122,57.617,36.621,32.227,9.766,28.320
1584598912.126,80.566,40.527,32.227,87.891,61.523
1584598912.130,13.672,33.691,26.855,37.598,93.262
1584598912.134,-28.320,31.250,26.367,-50.293,87.891
1584598912.138,31.250,37.109,29.297,-18.555,-22.949
1584598912.142,83.496,42.480,32.227,82.520,-47.852
1584598912.145,41.016,39.062,30.762,67.871,46.875
1584598912.149,-21.973,34.180,25.391,-28.809,56.641
1584598912.153,12.207,38.086,28.320,-37.109,-17.578
1584598912.157,87.891,45.410,32.715,62.988,5.859
1584598912.161,65.430,41.504,31.738,87.891,86.914
1584598912.165,-12.695,31.738,27.344,-4.395,86.914
1584598912.169,-4.395,34.180,26.855,-44.922,28.320
1584598912.173,66.895,38.574,32.227,40.039,-4.883
1584598912.177,69.824,35.156,30.762,95.703,32.227
1584598912.181,-3.906,27.344,25.879,21.973,41.504
1584598912.185,-26.367,24.414,27.344,-44.434,51.758
1584598912.188,46.875,29.785,30.762,16.113,26.855
1584598912.192,84.473,34.668,29.785,87.891,-35.645
1584598912.196,25.879,30.762,31.250,42.480,-53.223
1584598912.200,-30.273,27.344,30.273,-42.969,-26.367
1584598912.204,23.926,32.227,30.762,-15.625,1.953
1584598912.208,82.031,34.180,34.668,79.590,40.527
1584598912.212,40.527,30.762,32.227,67.871,55.176
1584598912.216,-24.902,26.367,31.738,-26.367,43.457
1584598912.220,1.953,26.367,29.785,-44.922,-8.789
1584598912.224,73.242,29.785,29.785,51.270,-4.395
1584598912.227,58.105,32.227,29.785,85.449,55.664
1584598912.231,-19.043,28.320,26.367,-0.977,53.711
1584598912.235,-20.996,26.367,22.949,-55.176,40.527
1584598912.239,59.570,30.273,30.762,23.926,0.000
1584598912.243,75.195,33.691,36.133,92.285,14.160
1584598912.247,-3.418,26.855,24.902,21.973,62.012
1584598912.251,-35.156,24.414,22.461,-54.199,9.766
1584598912.255,33.691,28.809,27.344,-2.441,-20.508
1584598912.259,78.613,36.133,29.297,87.891,-13.672
1584598912.263,21.973,34.180,28.320,58.594,-56.641
1584598912.267,-39.551,24.414,28.809,-33.691,-30.273
1584598912.270,8.301,24.902,27.832,-32.227,24.902
1584598912.274,77.148,29.785,27.344,58.594,20.020
1584598912.278,46.387,28.320,37.109,74.219,43.945
1584598912.282,-19.043,19.531,44.434,1.465,63.477
1584598912.286,21.484,24.902,38.086,-5.859,22.949
1584598912.290,75.684,36.621,30.762,57.129,22.461
1584598912.294,28.809,32.227,31.738,56.641,25.879
1584598912.298,-46.387,23.438,24.414,-28.809,-10.254
1584598912.302,-53.711,24.902,15.137,-91.309,32.715
1584598912.306,16.113,40.039,20.508,-25.879,25.391
1584598912.310,33.203,47.363,22.949,37.109,-2.441
1584598912.313,-39.062,44.434,9.277,-26.855,48.828
1584598912.317,-78.125,39.551,0.488,-116.211,37.598
1584598912.321,-23.926,32.227,4.883,-87.402,55.176
1584598912.325,19.043,41.504,5.859,1.953,60.059
1584598912.329,-50.781,49.805,-5.859,-38.574,35.156
1584598912.333,-123.047,48.340,-11.230,-146.484,19.531
1584598912.337,-86.914,46.875,-12.207,-151.367,15.625
1584598912.341,-20.508,50.293,-3.906,-53.223,-19.043
1584598912.345,-31.738,45.898,-1.465,-26.855,27.344
1584598912.349,-99.121,36.133,-0.977,-111.816,86.426
1584598912.352,-88.867,51.270,0.977,-146.973,39.551
1584598912.356,-23.926,54.199,-8.789,-70.801,47.852
1584598912.360,-31.250,45.410,-9.766,-29.785,16.602
1584598912.364,-100.098,41.504,-5.371,-99.609,28.320
1584598912.368,-103.516,41.016,-0.977,-139.160,50.781
1584598912.372,-26.855,42.480,-0.488,-72.754,65.430
1584598912.376,3.418,44.434,-5.371,-3.906,37.598
1584598912.380,-52.734,36.133,-7.324,-36.621,24.902
1584598912.384,-90.332,32.715,-7.324,-115.234,16.113
1584598912.388,-27.832,36.621,-5.371,-93.262,-10.742
1584598912.392,37.109,43.945,4.395,14.648,17.578
1584598912.395,0.977,45.410,8.789,22.461,24.902
1584598912.399,-60.059,35.645,4.395,-57.617,35.645
1584598912.403,-18.555,35.156,1.465,-63.477,-0.977
1584598912.407,53.223,43.945,4.395,27.832,-18.555
1584598912.411,35.156,44.434,8.789,59.570,35.156
1584598912.415,-27.832,34.180,12.207,-17.090,57.617
1584598912.419,-14.648,30.273,13.184,-63.477,-7.324
1584598912.423,57.617,33.203,10.742,7.324,-5.859
1584598912.427,69.336,32.227,13.184,66.895,44.434
1584598912.431,1.953,27.344,10.254,9.766,64.453
1584598912.435,-18.066,25.879,6.836,-67.871,15.137
1584598912.438,51.758,32.715,14.648,-21.973,-27.832
1584598912.442,82.520,36.133,16.113,79.102,73.730
1584598912.446,27.344,30.273,17.090,53.711,82.031
1584598912.450,-23.438,27.832,15.625,-43.945,25.391
1584598912.454,19.531,25.879,13.184,-33.203,-6.836
1584598912.458,77.637,26.855,16.113,64.941,-15.625
1584598912.462,41.504,26.855,16.113,66.406,39.551
1584598912.466,-27.832,21.484,15.625,-22.461,58.105
1584598912.470,-0.977,23.926,16.113,-40.039,49.316
1584598912.474,74.707,31.250,18.066,54.199,-1.465
1584598912.477,61.523,29.785,17.578,89.844,-10.742
1584598912.481,-8.301,25.391,18.066,8.301,43.457
1584598912.485,-4.883,29.297,23.926,-38.086,89.355
1584598912.489,66.406,33.203,24.902,32.227,48.828
1584598912.493,80.566,33.203,20.996,91.309,-29.297
1584598912.497,18.066,33.691,22.949,36.133,17.578
1584598912.501,-8.789,30.762,25.879,-30.273,69.824
1584598912.505,45.898,24.902,24.902,17.090,51.270
1584598912.509,83.008,24.414,22.461,95.703,13.184
1584598912.513,38.574,26.367,21.484,56.152,18.555
1584598912.517,-16.602,23.438,18.555,-38.086,56.152
1584598912.520,25.391,22.949,19.043,-31.250,-1.465
1584598912.524,83.496,27.832,25.879,60.059,41.504
1584598912.528,50.781,31.738,27.344,66.895,82.031
1584598912.532,-18.066,27.344,21.973,-20.996,25.391
1584598912.536,6.348,22.949,24.414,-43.457,-35.645
1584598912.540,79.102,29.297,29.785,52.246,-16.602
1584598912.544,70.312,29.297,24.902,91.797,39.062
1584598912.548,-4.395,20.508,20.996,6.836,26.855
1584598912.552,-18.066,17.578,22.461,-53.223,60.547
1584598912.556,62.012,28.809,24.414,23.926,83.984
1584598912.560,88.867,35.156,24.414,98.145,11.230
1584598912.563,15.625,29.297,21.973,37.598,-15.137
1584598912.567,-25.879,23.438,20.996,-45.410,13.672
1584598912.571,36.621,26.855,21.973,4.395,41.992
1584598912.575,81.543,30.273,20.996,97.168,19.531
1584598912.579,28.320,23.438,21.484,62.012,26.855
1584598912.583,-26.855,17.578,22.461,-30.762,40.527
1584598912.587,13.672,20.508,23.438,-21.973,21.484
1584598912.591,71.777,25.879,26.855,86.426,34.668
1584598912.595,44.434,20.996,27.344,104.492,7.812
1584598912.599,-24.414,15.625,24.414,-9.277,-9.277
1584598912.602,-2.441,22.461,20.996,-54.199,-22.949
1584598912.606,75.684,31.738,25.391,48.828,-52.734
1584598912.610,70.801,28.809,33.691,97.656,-40.527
1584598912.614,-1.465,20.020,30.273,14.160,1.465
1584598912.618,-14.648,17.090,25.391,-47.363,26.367
1584598912.622,57.617,29.297,33.691,31.738,35.645
1584598912.626,80.566,32.227,38.086,107.910,41.016
1584598912.630,15.625,20.020,28.320,37.109,-6.348
1584598912.634,-17.578,23.438,24.414,-47.852,1.465
1584598912.638,41.016,28.320,27.344,0.000,35.156
1584598912.642,89.844,29.785,34.180,96.680,3.906
1584598912.645,43.457,32.715,35.156,72.266,26.855
1584598912.649,-18.555,24.902,34.180,-25.879,41.016
1584598912.653,20.996,24.414,31.250,-20.508,-0.488
1584598912.657,90.820,32.227,25.879,83.496,39.551
1584598912.661,70.801,29.785,29.297,95.215,47.363
1584598912.665,-4.883,22.949,33.691,-10.254,39.062
1584598912.669,0.488,26.367,29.785,-44.922,76.660
1584598912.673,70.312,32.227,30.273,47.363,15.137
1584598912.677,66.406,33.203,32.227,94.238,-35.645
1584598912.681,-5.371,29.785,28.809,19.043,7.324
1584598912.685,-20.508,25.391,29.785,-44.434,12.207
1584598912.688,48.340,29.785,33.203,27.344,17.090
1584598912.692,79.590,35.156,35.156,112.793,109.863
1584598912.696,24.902,33.203,35.156,62.500,93.750
1584598912.700,-25.879,23.438,28.320,-36.621,10.742
1584598912.704,20.996,24.414,33.203,-6.348,13.184
1584598912.708,74.219,32.715,43.945,99.121,46.875
1584598912.712,35.645,28.320,38.574,81.543,35.645
1584598912.716,-26.855,23.926,29.297,-23.438,-7.324
1584598912.720,2.930,25.879,31.250,-40.527,14.648
1584598912.724,76.172,34.180,37.598,67.383,49.316
1584598912.727,65.430,36.621,37.598,100.098,22.461
1584598912.731,-10.254,27.344,33.691,-7.812,27.344
1584598912.735,-11.719,27.344,32.227,-51.758,13.184
1584598912.739,63.965,36.621,36.621,48.340,12.695
1584598912.743,74.707,30.273,38.574,115.723,26.855
1584598912.747,2.441,20.508,34.180,33.691,36.621
1584598912.751,-25.391,22.949,30.762,-47.363,60.059
1584598912.755,41.504,29.297,35.645,21.973,44.922
1584598912.759,75.195,29.785,37.598,112.305,13.184
1584598912.763,24.414,24.414,36.621,58.594,16.113
1584598912.767,-22.461,24.902,35.645,-45.898,85.938
1584598912.770,18.066,29.297,33.691,-16.113,103.027
1584598912.774,71.777,28.809,34.180,94.238,42.480
1584598912.778,38.086,22.461,34.180,83.008,-10.742
1584598912.782,-28.320,20.508,31.250,-25.391,-8.301
1584598912.786,-1.465,23.926,30.762,-37.598,21.484
1584598912.790,72.266,24.414,35.156,73.730,-22.461
1584598912.794,64.453,27.344,32.227,103.516,2.441
1584598912.798,-10.742,26.855,31.250,0.977,37.598
1584598912.802,-11.719,25.879,33.691,-47.363,23.926
1584598912.806,60.547,33.203,32.715,37.598,-11.719
1584598912.810,70.312,33.203,29.785,95.703,-8.789
1584598912.813,5.371,29.297,25.879,15.625,2.930
1584598912.817,-26.855,22.949,25.879,-63.965,10.742
1584598912.821,33.691,25.879,33.203,5.371,29.297
1584598912.825,75.195,31.738,36.621,102.051,-0.488
1584598912.829,17.090,27.344,30.273,51.758,0.000
1584598912.833,-42.969,17.090,25.879,-63.477,42.969
1584598912.837,8.301,27.344,30.273,-43.457,102.539
1584598912.841,78.613,35.645,41.016,82.031,61.523
1584598912.845,34.180,20.508,45.410,75.684,52.734
1584598912.849,-57.129,15.137,38.086,-59.570,86.914
1584598912.852,-39.062,29.785,36.621,-89.355,41.504
1584598912.856,37.598,40.039,44.434,17.090,77.637
1584598912.860,25.879,34.180,44.922,51.270,70.801
1584598912.864,-55.664,25.879,45.898,-46.875,34.668
1584598912.868,-72.754,21.973,45.898,-109.375,38.086
1584598912.872,-8.789,22.949,47.363,-25.391,42.480
1584598912.876,3.906,18.066,49.805,43.457,29.785
1584598912.880,-67.871,10.742,46.875,-42.969,-13.184
1584598912.884,-116.211,12.207,46.875,-148.926,26.367
1584598912.888,-66.406,19.043,47.852,-106.445,33.691
1584598912.892,-29.297,21.973,54.688,-7.324,36.621
1584598912.895,-83.984,14.648,53.223,-47.363,31.250
1584598912.899,-145.020,3.418,47.363,-165.039,-23.926
1584598912.903,-107.422,2.441,55.664,-148.438,2.441
1584598912.907,-45.898,8.301,62.500,-23.438,58.594
1584598912.911,-68.848,8.301,60.547,-13.672,31.738
1584598912.915,-141.113,6.348,58.594,-139.160,-4.395
1584598912.919,-141.113,5.371,60.059,-179.688,-16.602
1584598912.923,-60.059,9.277,63.477,-56.152,1.465
1584598912.927,-44.434,8.789,61.523,9.766,19.531
1584598912.931,-117.188,2.930,56.152,-87.402,2.441
1584598912.935,-128.906,2.441,57.129,-155.273,28.320
1584598912.938,-50.781,7.324,59.082,-61.035,40.039
1584598912.942,-4.395,10.254,55.176,48.340,25.391
1584598912.946,-47.852,8.301,52.246,-7.812,-0.977
1584598912.950,-80.566,5.371,49.316,-103.516,-15.625
1584598912.954,-7.324,9.277,51.270,-33.691,3.906
1584598912.958,56.641,18.555,51.270,91.309,69.824
1584598912.962,23.926,21.973,39.551,61.035,69.336
1584598912.966,-32.715,20.020,29.785,-52.734,24.902
1584598912.970,5.859,22.949,31.250,-38.574,45.410
1584598912.974,77.148,26.367,33.691,84.473,39.551
1584598912.977,68.359,26.367,30.273,112.305,5.371
1584598912.981,10.742,24.414,26.855,17.090,33.691
1584598912.985,20.996,28.320,21.484,-17.578,71.777
1584598912.989,97.656,35.156,23.438,90.820,66.895
1584598912.993,111.328,35.156,27.344,151.855,7.812
1584598912.997,51.270,36.621,20.508,62.012,7.324
1584598913.001,32.227,34.180,16.113,-10.254,24.414
1584598913.005,102.051,36.133,20.020,66.406,35.156
1584598913.009,135.742,42.480,20.020,160.156,45.410
1584598913.013,78.613,37.109,17.090,107.910,1.953
1584598913.017,29.297,29.297,11.719,-2.441,-21.973
1584598913.020,74.707,35.156,13.672,32.227,-30.273
1584598913.024,130.859,42.480,23.926,154.785,-15.137
1584598913.028,93.750,34.180,25.391,144.043,46.875
1584598913.032,29.297,25.391,19.531,23.926,44.922
1584598913.036,58.594,28.320,16.113,13.184,26.855
1584598913.040,130.371,36.133,16.113,136.719,22.461
1584598913.044,121.094,36.621,16.602,167.969,0.000
1584598913.048,49.805,31.250,13.184,50.293,56.641
1584598913.052,42.969,24.902,14.648,-7.812,75.684
1584598913.056,113.281,32.227,20.020,98.145,-2.930
1584598913.060,127.930,37.109,20.020,174.316,1.465
1584598913.063,62.500,28.809,18.066,84.473,-4.395
1584598913.067,32.227,25.879,12.695,-13.184,-6.836
1584598913.071,93.750,34.180,12.695,56.641,10.742
1584598913.075,134.766,40.039,19.043,162.598,-14.160
1584598913.079,80.078,35.156,17.090,110.352,-31.250
1584598913.083,22.949,27.344,10.742,-7.324,30.762
1584598913.087,64.453,29.785,13.672,19.531,60.059
1584598913.091,119.141,34.180,22.949,142.578,42.969
1584598913.095,88.867,29.297,23.926,125.977,-2.441
1584598913.099,20.508,25.391,21.484,-3.418,-37.109
1584598913.102,40.527,28.320,20.996,-11.230,9.277
1584598913.106,108.887,33.691,21.973,113.281,1.465
1584598913.110,98.633,36.621,20.996,143.555,-6.836
1584598913.114,26.367,30.762,19.043,25.879,-11.719
1584598913.118,17.090,28.809,19.043,-29.785,42.480
1584598913.122,89.844,36.621,22.461,74.707,66.406
1584598913.126,111.328,39.551,23.438,148.438,83.008
1584598913.130,47.852,34.180,16.602,63.477,85.449
1584598913.134,7.324,27.344,14.648,-33.691,14.160
1584598913.138,63.965,28.809,19.043,29.297,-12.695
1584598913.142,108.398,36.133,21.484,136.230,-2.930
1584598913.145,64.941,35.156,26.855,98.633,28.809
1584598913.149,9.766,26.367,27.832,-15.137,34.180
1584598913.153,47.363,29.297,28.320,3.418,32.715
1584598913.157,107.422,37.598,29.297,128.906,76.660
1584598913.161,79.102,35.156,30.762,130.859,105.469
1584598913.165,7.324,25.879,25.391,3.418,33.691
1584598913.169,21.484,24.902,23.438,-26.367,-6.348
1584598913.173,102.539,26.855,33.691,104.980,2.930
1584598913.177,123.047,28.809,36.133,173.340,-21.484
1584598913.181,42.480,30.762,28.320,52.734,-5.859
1584598913.185,-11.719,30.273,22.949,-59.570,40.039
1584598913.188,53.223,40.039,22.461,27.344,50.293
1584598913.192,95.703,46.875,23.926,131.836,40.039
1584598913.196,34.668,39.551,20.020,53.223,55.664
1584598913.200,-10.742,35.156,15.625,-58.105,6.836
1584598913.204,48.828,45.898,16.113,1.953,-13.184
1584598913.208,100.098,52.734,19.043,115.723,60.059
1584598913.212,54.688,44.922,14.648,77.637,32.715
1584598913.216,-6.348,40.039,7.812,-41.504,19.043
1584598913.220,27.832,48.828,8.789,-30.273,86.426
1584598913.224,93.750,57.617,8.789,94.727,56.152
1584598913.227,77.148,56.641,5.859,106.445,62.012
1584598913.231,0.977,52.246,0.488,-25.391,40.039
1584598913.235,5.371,54.688,0.000,-62.012,-12.207
1584598913.239,83.496,61.523,3.418,64.453,40.039
1584598913.243,92.285,62.500,2.930,122.559,35.156
1584598913.247,28.809,54.199,0.000,18.066,23.926
1584598913.251,9.277,49.805,1.953,-54.199,33.691
1584598913.255,80.566,55.664,11.230,39.551,42.480
1584598913.259,112.793,59.082,16.113,130.859,68.359
1584598913.263,54.199,51.758,13.184,64.453,53.223
1584598913.267,8.301,47.363,10.254,-44.922,31.250
1584598913.270,54.688,50.293,11.230,-1.953,72.754
1584598913.274,105.469,54.199,14.160,112.305,94.238
1584598913.278,71.777,53.711,17.090,87.402,60.059
1584598913.282,11.719,47.363,16.113,-26.855,8.301
1584598913.286,34.180,42.969,12.207,-28.809,20.508
1584598913.290,102.539,47.363,14.648,89.355,39.551
1584598913.294,89.844,46.875,17.090,118.164,71.289
1584598913.298,17.578,38.086,16.113,6.836,16.113
1584598913.302,11.230,37.598,19.043,-43.945,-6.836
1584598913.306,74.219,42.969,27.344,56.641,48.828
1584598913.310,83.984,43.457,27.344,122.559,11.230
1584598913.313,20.508,38.086,20.996,33.691,14.160
1584598913.317,-8.301,33.203,19.043,-56.641,56.152
1584598913.321,54.199,37.598,23.438,14.648,20.996
1584598913.325,95.215,46.387,27.344,119.629,44.434
1584598913.329,46.875,41.016,26.367,70.801,61.523
1584598913.333,-0.977,33.203,26.855,-42.480,-20.996
1584598913.337,37.109,38.086,30.762,-15.137,-0.977
1584598913.341,90.332,42.480,30.273,107.910,18.555
1584598913.345,61.035,37.598,28.320,94.727,-1.465
1584598913.349,0.000,28.809,27.832,-25.391,7.812
1584598913.352,35.156,29.785,33.203,-16.113,69.824
1584598913.356,107.910,36.133,35.645,109.863,96.680
1584598913.360,70.312,35.645,29.785,110.840,26.855
1584598913.364,-15.625,31.250,23.926,-23.438,33.691
1584598913.368,-8.301,34.668,20.996,-73.242,42.969
1584598913.372,72.754,48.340,22.461,41.504,3.418
1584598913.376,91.797,54.199,21.973,119.141,1.953
1584598913.380,35.645,46.387,17.578,30.762,9.766
1584598913.384,5.859,46.875,14.648,-62.500,-13.672
1584598913.388,54.688,54.688,14.648,6.836,7.812
1584598913.392,99.121,61.035,14.160,125.488,37.598
1584598913.395,66.895,62.500,10.742,84.473,40.039
1584598913.399,15.137,59.570,5.859,-41.016,6.836
1584598913.403,47.852,59.570,6.836,-20.020,43.457
1584598913.407,112.793,62.500,10.742,112.793,48.340
1584598913.411,93.750,58.594,16.113,118.652,-9.277
1584598913.415,23.438,48.340,12.207,-12.207,21.973
1584598913.419,31.738,50.293,7.812,-44.922,0.488
1584598913.423,97.656,56.152,14.648,70.801,34.180
1584598913.427,101.074,52.734,18.066,113.281,100.098
1584598913.431,40.527,46.875,14.160,12.695,82.520
1584598913.435,21.973,41.504,13.672,-50.781,19.531
1584598913.438,79.102,44.434,20.996,42.969,-37.109
1584598913.442,102.051,49.316,23.926,130.371,-7.324
1584598913.446,43.457,43.945,21.973,52.246,-10.254
1584598913.450,-0.977,37.109,20.508,-52.734,-3.906
1584598913.454,41.504,40.527,25.879,5.371,25.391
1584598913.458,83.008,41.016,32.715,121.094,14.160
1584598913.462,44.434,36.621,29.297,86.914,32.227
1584598913.466,-10.742,34.180,22.949,-34.668,0.488
1584598913.470,17.578,34.180,24.902,-29.785,-34.668
1584598913.474,79.102,41.016,31.738,97.656,7.812
1584598913.477,67.871,41.992,32.227,117.188,62.012
1584598913.481,5.371,36.621,24.902,-4.883,88.379
1584598913.485,10.742,33.691,27.344,-44.434,52.734
1584598913.489,72.266,38.086,30.762,70.801,9.277
1584598913.493,79.590,40.039,29.297,129.883,41.016
1584598913.497,23.926,33.691,29.785,26.855,17.090
1584598913.501,-0.977,33.203,29.785,-54.199,1.465
1584598913.505,51.758,38.574,36.133,36.133,36.621
1584598913.509,80.566,38.574,43.945,136.719,-19.531
1584598913.513,31.250,26.367,37.598,57.617,-49.805
1584598913.517,-10.254,20.996,28.320,-60.059,10.742
1584598913.520,27.344,30.273,30.273,-1.465,33.691
1584598913.524,71.777,33.691,34.180,118.164,-18.066
1584598913.528,43.945,30.762,32.715,88.379,-2.930
1584598913.532,-10.254,27.832,28.809,-40.527,17.090
1584598913.536,10.742,27.344,28.320,-41.016,0.000
1584598913.540,67.383,31.738,28.320,85.449,12.207
1584598913.544,55.176,31.738,28.320,107.422,56.152
1584598913.548,-4.883,23.438,28.320,-17.090,44.922
1584598913.552,-3.906,20.508,30.762,-69.824,-10.254
1584598913.556,49.316,26.367,32.227,44.922,-19.043
1584598913.560,58.105,28.809,31.250,109.863,33.203
1584598913.563,7.324,25.879,29.297,6.348,49.805
1584598913.567,-22.461,24.902,28.809,-75.684,31.250
1584598913.571,27.832,26.855,30.762,16.113,-18.555
1584598913.575,60.059,30.273,30.273,120.117,25.879
1584598913.579,17.578,26.367,31.738,57.129,53.711
1584598913.583,-26.367,19.531,28.809,-62.012,45.898
1584598913.587,10.742,26.367,24.902,-24.414,61.035
1584598913.591,61.035,32.715,29.297,109.863,6.836
1584598913.595,38.574,27.344,29.785,94.238,-41.016
1584598913.599,-18.066,20.020,27.344,-39.062,-22.949
1584598913.602,-5.859,20.508,25.879,-52.246,-5.371
1584598913.606,52.734,27.344,27.344,71.777,15.625
1584598913.610,49.316,31.250,25.879,103.027,28.320
1584598913.614,-7.812,20.508,24.414,-17.090,16.602
1584598913.618,-20.020,13.672,26.367,-78.125,20.996
1584598913.622,35.645,20.996,32.227,33.203,42.969
1584598913.626,54.688,24.902,36.621,118.164,22.461
1584598913.630,5.371,18.555,35.645,25.879,11.230
1584598913.634,-22.461,15.625,32.715,-77.148,21.484
1584598913.638,37.109,21.484,35.156,7.324,53.711
1584598913.642,100.586,22.461,42.969,152.344,47.363
1584598913.645,67.383,20.508,41.992,104.004,24.414
1584598913.649,-8.789,20.508,32.227,-64.453,24.414
1584598913.653,9.766,27.344,27.832,-53.711,27.344
1584598913.657,77.148,35.645,29.785,100.586,59.082
1584598913.661,65.430,35.156,29.785,107.910,43.945
1584598913.665,8.301,35.645,24.902,-32.227,5.859
1584598913.669,20.996,39.062,23.438,-52.246,7.812
1584598913.673,89.355,45.898,26.855,91.309,-2.441
1584598913.677,95.703,41.992,30.762,145.020,56.641
1584598913.681,32.227,32.715,30.762,20.996,14.160
1584598913.685,8.789,32.715,29.785,-59.082,-17.090
1584598913.688,59.082,36.621,33.203,47.363,39.551
1584598913.692,79.102,36.133,26.855,133.789,56.641
1584598913.696,32.715,32.715,22.949,41.504,36.133
1584598913.700,1.953,32.227,27.344,-62.988,17.578
1584598913.704,45.410,33.203,30.762,12.695,52.734
1584598913.708,88.379,38.574,33.691,135.254,16.113
1584598913.712,55.176,36.621,34.668,83.984,11.719
1584598913.716,0.000,27.832,32.715,-44.434,40.527
1584598913.720,24.414,30.762,32.715,-25.391,26.855
1584598913.724,83.496,39.551,33.691,109.863,89.844
1584598913.727,67.871,34.180,31.250,115.234,58.594
1584598913.731,6.836,25.879,31.250,-16.602,26.855
1584598913.735,7.812,25.879,29.785,-44.434,51.758
1584598913.739,66.895,33.691,29.297,81.543,71.289
1584598913.743,75.684,37.109,34.180,135.742,54.688
1584598913.747,20.996,30.273,33.203,19.531,13.672
1584598913.751,2.441,23.438,30.273,-63.477,53.711
1584598913.755,56.152,28.320,30.273,30.762,51.270
1584598913.759,84.473,37.109,32.227,123.535,12.695
1584598913.763,35.645,31.738,29.297,43.945,37.109
1584598913.767,-11.719,25.391,25.879,-74.707,-4.883
1584598913.770,25.879,26.367,32.715,-12.207,50.781
1584598913.774,75.195,28.809,36.621,120.605,82.520
1584598913.778,46.387,27.344,28.320,81.543,16.602
1584598913.782,-8.301,23.926,22.461,-52.734,21.484
1584598913.786,7.812,23.438,26.367,-43.945,31.250
1584598913.790,62.988,29.785,30.762,92.285,31.738
1584598913.794,54.688,35.156,28.809,111.328,41.992
1584598913.798,-6.836,26.367,26.367,-22.461,52.246
1584598913.802,-13.672,20.508,28.320,-72.266,18.555
1584598913.806,41.016,26.855,33.203,52.246,2.441
1584598913.810,56.152,29.297,34.180,123.047,-3.418
1584598913.813,4.883,27.344,30.273,12.695,45.410
1584598913.817,-20.508,25.391,26.367,-79.590,26.367
1584598913.821,35.645,31.738,22.949,17.578,-17.578
1584598913.825,73.730,34.180,25.391,127.441,6.348
1584598913.829,30.273,26.855,26.367,51.758,10.742
1584598913.833,-13.672,22.949,23.438,-74.707,52.246
1584598913.837,17.578,23.926,24.902,-25.879,46.387
1584598913.841,64.453,29.297,26.367,113.281,-26.855
1584598913.845,41.504,29.297,22.461,87.891,-16.113
1584598913.849,-18.555,23.926,21.484,-54.688,32.715
1584598913.852,-1.953,26.367,22.949,-54.688,9.766
1584598913.856,60.059,33.691,27.832,90.332,15.625
1584598913.860,59.082,34.180,31.738,118.164,17.578
1584598913.864,-0.977,27.344,28.809,-17.578,-31.250
1584598913.868,-10.254,23.926,22.461,-72.754,-6.836
1584598913.872,48.828,29.785,25.879,56.152,42.969
1584598913.876,66.406,26.855,30.762,134.766,21.484
1584598913.880,15.137,19.043,26.367,25.391,39.551
1584598913.884,-16.602,17.578,22.949,-82.031,93.262
1584598913.888,26.367,21.484,24.414,0.488,62.500
1584598913.892,61.523,25.879,29.297,118.652,18.555
1584598913.895,20.508,24.902,28.809,55.176,27.832
1584598913.899,-27.832,20.508,24.414,-74.219,29.297
1584598913.903,2.930,25.879,24.902,-37.109,35.156
1584598913.907,53.223,29.785,30.762,102.539,59.082
1584598913.911,35.645,23.438,29.297,95.703,41.016
1584598913.915,-24.414,19.043,22.461,-50.781,55.664
1584598913.919,-12.695,21.484,24.902,-68.359,110.352
1584598913.923,50.781,28.809,29.785,73.730,74.219
1584598913.927,49.805,30.762,28.320,112.305,17.090
1584598913.931,-6.836,25.391,23.438,-19.043,65.430
1584598913.935,-27.832,20.020,23.926,-96.680,51.758
1584598913.938,26.855,27.832,28.809,18.066,-44.922
1584598913.942,54.688,33.691,28.320,116.699,12.695
1584598913.946,2.930,25.391,25.391,19.043,31.250
1584598913.950,-32.715,20.996,24.414,-96.191,-15.625
1584598913.954,11.719,26.367,26.855,-14.648,50.293
1584598913.958,55.176,26.855,32.227,119.629,53.223
1584598913.962,16.113,16.602,30.273,61.035,30.273
1584598913.966,-35.156,12.695,25.391,-83.008,44.922
1584598913.970,-2.441,20.996,27.832,-52.734,81.543
1584598913.974,50.293,30.273,32.227,95.703,107.422
1584598913.977,33.203,28.320,31.738,93.262,47.852
1584598913.981,-25.391,20.020,28.809,-55.664,36.621
1584598913.985,-22.461,23.438,30.762,-79.590,20.508
1584598913.989,35.645,31.250,32.715,67.871,40.039
1584598913.993,48.340,30.273,31.250,122.559,75.195
1584598913.997,-0.977,22.949,29.297,-7.812,35.156
1584598914.001,-21.973,18.555,30.273,-94.238,-6.348
1584598914.005,30.762,22.461,30.273,16.602,-25.391
1584598914.009,56.641,28.320,30.273,119.141,46.387
1584598914.013,13.184,22.461,27.832,26.855,82.520
1584598914.017,-22.949,15.625,27.344,-97.168,39.551
1584598914.020,16.602,21.484,27.832,-27.344,7.324
1584598914.024,63.965,24.902,27.832,108.887,68.848
1584598914.028,41.992,24.902,28.809,65.430,66.895
1584598914.032,-10.254,23.438,27.344,-75.684,0.977
1584598914.036,-1.953,23.926,30.273,-55.176,40.527
1584598914.040,49.316,30.273,36.621,97.656,40.039
1584598914.044,44.434,29.297,38.086,112.305,13.672
1584598914.048,-16.602,20.020,36.133,-35.156,89.844
1584598914.052,-17.578,19.531,35.645,-85.938,102.051
1584598914.056,42.969,28.320,40.039,50.781,1.465
1584598914.060,52.734,29.297,40.039,121.582,-69.824
1584598914.063,-4.395,19.531,34.668,2.441,-17.090
1584598914.067,-30.273,16.602,28.809,-98.145,59.570
1584598914.071,21.484,24.414,33.203,4.395,60.059
1584598914.075,53.711,31.738,34.668,125.000,36.621
1584598914.079,12.695,26.855,28.809,47.852,4.883
1584598914.083,-32.227,20.996,25.391,-92.773,11.230
1584598914.087,2.441,25.879,28.809,-37.109,9.277
1584598914.091,51.758,31.250,34.668,111.328,26.367
1584598914.095,29.785,28.809,34.668,80.078,20.996
1584598914.099,-19.043,23.438,34.180,-75.195,1.953
1584598914.102,-6.836,26.367,34.668,-76.172,20.508
1584598914.106,44.922,33.203,37.598,85.938,56.641
1584598914.110,40.527,29.297,39.551,112.305,75.684
1584598914.114,-6.836,21.484,35.156,-41.016,-3.906
1584598914.118,-9.766,20.508,35.645,-99.609,-40.527
1584598914.122,40.039,28.320,40.527,44.434,15.137
1584598914.126,50.781,30.273,38.574,133.301,19.531
1584598914.130,-4.395,19.043,34.180,6.348,-36.133
1584598914.134,-34.668,14.648,33.691,-107.422,-25.391
1584598914.138,18.066,22.949,37.109,-1.465,25.879
1584598914.142,56.641,27.344,38.574,126.953,70.801
1584598914.145,17.090,23.438,32.227,50.293,5.371
1584598914.149,-24.414,20.020,27.344,-92.285,-6.348
1584598914.153,11.719,23.438,34.180,-39.551,-11.230
1584598914.157,53.711,24.902,39.551,111.816,-85.449
1584598914.161,41.504,21.484,36.621,109.375,-73.242
1584598914.165,1.953,22.949,28.809,-34.180,28.809
1584598914.169,-8.301,27.344,25.391,-78.613,48.340
1584598914.173,33.203,28.320,34.180,58.105,20.020
1584598914.177,36.133,28.320,35.645,100.098,34.180
1584598914.181,-21.973,24.414,29.297,-40.527,42.480
1584598914.185,-44.922,18.555,25.391,-128.418,34.180
1584598914.188,-8.301,19.531,29.785,-20.020,82.520
1584598914.192,18.555,25.879,31.250,80.566,73.242
1584598914.196,-22.461,21.973,24.414,-21.484,-7.812
1584598914.200,-59.082,16.113,21.484,-136.719,36.133
1584598914.204,-14.648,20.020,25.391,-56.152,60.547
1584598914.208,24.414,24.414,28.320,69.336,16.602
1584598914.212,-4.883,22.461,23.438,18.066,35.156
1584598914.216,-43.457,14.648,21.484,-115.723,-6.348
1584598914.220,-15.137,18.066,24.902,-96.191,-61.523
1584598914.224,35.645,28.809,29.297,51.270,-2.930
1584598914.227,24.414,26.855,27.832,66.406,100.098
1584598914.231,-22.461,16.113,23.926,-67.383,98.633
1584598914.235,-18.066,13.184,23.926,-93.750,23.438
1584598914.239,31.250,18.555,26.855,45.410,-16.602
1584598914.243,38.574,19.531,27.832,103.516,34.180
1584598914.247,-10.742,14.648,25.879,-19.043,65.430
1584598914.251,-26.855,11.719,29.297,-104.004,6.836
1584598914.255,22.949,17.090,31.738,1.465,28.809
1584598914.259,47.852,21.484,29.785,102.539,44.434
1584598914.263,10.742,15.625,26.855,18.066,7.324
1584598914.267,-20.020,12.695,25.879,-102.539,33.691
1584598914.270,17.090,22.949,27.344,-34.180,59.570
1584598914.274,57.129,24.902,29.297,102.539,-42.969
1584598914.278,30.762,20.508,28.320,66.895,-65.918
1584598914.282,-12.695,16.602,26.367,-62.988,32.715
1584598914.286,8.301,19.043,32.227,-51.758,84.961
1584598914.290,56.641,21.484,33.691,90.332,35.156
1584598914.294,43.457,20.020,29.297,111.816,44.434
1584598914.298,-0.977,18.066,26.855,-17.578,80.078
1584598914.302,-3.418,16.602,24.902,-61.035,37.109
1584598914.306,44.434,24.414,29.297,68.359,36.621
1584598914.310,61.523,27.344,34.668,135.254,21.973
1584598914.313,14.648,20.508,31.250,21.973,20.020
1584598914.317,-8.789,21.484,29.297,-67.383,23.926
1584598914.321,33.691,29.297,33.691,28.809,15.625
1584598914.325,62.988,33.203,35.156,135.742,23.926
1584598914.329,30.762,30.273,29.785,62.012,37.109
1584598914.333,-4.395,20.996,24.902,-58.105,-9.277
1584598914.337,22.461,24.414,30.762,-20.508,-18.066
1584598914.341,59.082,32.227,34.180,106.934,-13.184
1584598914.345,38.574,27.832,31.738,91.309,-17.090
1584598914.349,-6.836,24.414,26.855,-45.410,-0.977
1584598914.352,3.906,22.949,22.949,-61.523,43.945
1584598914.356,56.152,25.391,26.855,76.172,93.262
1584598914.360,56.152,27.344,31.738,117.188,122.070
1584598914.364,6.348,19.531,31.738,-8.789,86.914
1584598914.368,-5.371,18.066,27.832,-68.848,34.180
1584598914.372,41.504,26.855,29.785,49.316,21.484
1584598914.376,57.617,33.203,32.715,133.301,8.789
1584598914.380,13.184,24.902,29.297,36.133,-12.207
1584598914.384,-12.695,19.043,27.832,-65.430,35.645
1584598914.388,26.367,24.414,32.227,11.719,17.090
1584598914.392,59.570,27.344,31.738,130.371,8.789
1584598914.395,34.180,24.414,24.902,79.102,83.008
1584598914.399,-5.371,19.043,22.461,-53.223,56.641
1584598914.403,13.672,22.461,27.344,-29.785,-0.977
1584598914.407,56.641,27.344,33.691,112.793,8.789
1584598914.411,44.434,23.438,31.738,112.305,37.598
1584598914.415,-0.488,19.043,25.391,-24.902,-3.906
1584598914.419,5.859,20.508,27.832,-52.734,21.484
1584598914.423,52.246,23.926,35.156,75.684,62.500
1584598914.427,55.664,25.879,35.645,124.023,79.102
1584598914.431,10.742,20.020,31.738,8.789,33.691
1584598914.435,-2.441,17.578,31.738,-65.918,-1.953
1584598914.438,41.992,25.391,34.180,37.109,52.734
1584598914.442,67.383,27.832,36.133,133.301,91.797
1584598914.446,31.738,25.879,33.691,46.875,60.547
1584598914.450,0.488,23.926,32.715,-60.547,30.273
1584598914.454,28.809,23.926,35.156,3.418,57.617
1584598914.458,59.082,25.879,38.086,119.629,70.801
1584598914.462,35.156,25.391,34.668,79.102,20.508
1584598914.466,-6.836,25.879,29.297,-47.363,4.883
1584598914.470,7.324,21.484,34.180,-31.738,33.203
1584598914.474,70.312,23.438,43.945,120.117,4.883
1584598914.477,60.547,34.180,39.551,118.652,-38.574
1584598914.481,-18.066,34.668,31.250,-43.457,27.344
1584598914.485,-27.832,30.273,28.809,-93.262,35.156
1584598914.489,23.438,31.738,30.762,32.715,5.859
1584598914.493,36.621,35.645,34.668,101.074,11.719
1584598914.497,-15.137,37.598,30.273,-14.648,37.109
1584598914.501,-39.062,32.227,19.043,-104.004,43.945
1584598914.505,3.418,33.203,14.160,-22.461,-9.766
1584598914.509,27.344,41.504,16.113,71.289,-58.105
1584598914.513,-1.465,37.598,16.113,18.066,2.930
1584598914.517,-28.809,31.250,17.578,-88.379,14.648
1584598914.520,-4.395,33.691,20.996,-52.246,23.438
1584598914.524,33.691,40.527,21.973,70.801,54.688
1584598914.528,22.461,39.551,19.043,60.059,-19.531
1584598914.532,-12.207,32.227,17.090,-56.641,-14.160
1584598914.536,-2.930,33.691,17.090,-72.754,23.926
1584598914.540,40.527,38.574,21.484,47.363,40.527
1584598914.544,42.480,36.621,22.949,91.797,45.898
1584598914.548,1.465,26.855,13.672,-13.672,52.734
1584598914.552,-5.371,25.391,11.719,-74.219,74.707
1584598914.556,31.250,34.180,20.508,31.250,78.613
1584598914.560,46.875,33.203,23.926,113.770,84.473
1584598914.563,16.602,26.855,20.996,31.738,17.578
1584598914.567,-10.254,24.902,20.508,-62.500,0.977
1584598914.571,20.508,27.832,26.855,-3.418,73.242
1584598914.575,50.781,27.344,28.809,103.027,54.688
1584598914.579,27.832,22.949,27.344,63.477,53.711
1584598914.583,0.977,20.508,26.855,-50.293,61.523
1584598914.587,15.625,24.414,27.832,-41.016,14.160
1584598914.591,51.758,30.762,32.227,76.660,-21.484
1584598914.595,44.922,27.832,27.832,84.961,-41.016
1584598914.599,9.277,25.391,19.043,-25.391,-52.734
1584598914.602,7.812,26.367,19.531,-61.523,-9.766
1584598914.606,43.457,28.809,24.902,39.062,-30.273
1584598914.610,55.664,32.715,28.320,101.074,-37.109
1584598914.614,25.391,25.879,29.297,33.203,50.781
1584598914.618,5.371,22.461,27.832,-47.852,63.965
1584598914.622,30.762,25.391,29.297,10.254,59.570
1584598914.626,59.082,25.879,31.738,111.328,50.293
1584598914.630,42.969,26.367,29.297,75.684,33.203
1584598914.634,20.020,24.414,27.832,-30.273,31.250
1584598914.638,36.133,25.879,32.227,-21.973,62.500
1584598914.642,62.988,29.785,31.250,81.543,36.133
1584598914.645,50.293,30.762,26.855,94.238,-2.930
1584598914.649,11.719,24.414,24.902,-2.930,18.066
1584598914.653,10.254,22.461,24.414,-41.016,18.555
1584598914.657,40.527,24.902,28.809,59.082,-8.789
1584598914.661,42.480,27.344,31.250,108.398,16.602
1584598914.665,14.648,22.949,27.832,28.320,56.641
1584598914.669,0.000,20.508,25.391,-47.852,58.105
1584598914.673,21.484,24.902,25.879,19.043,17.578
1584598914.677,40.039,24.902,29.785,107.910,46.387
1584598914.681,21.484,22.949,29.297,48.340,32.715
1584598914.685,-3.906,21.973,25.391,-62.012,3.906
1584598914.688,18.066,25.879,30.273,-26.367,16.602
1584598914.692,48.828,34.180,28.809,83.008,22.461
1584598914.696,34.668,30.273,24.902,72.754,57.617
1584598914.700,9.277,21.973,26.855,-29.297,60.059
1584598914.704,16.602,23.926,27.832,-38.574,51.270
1584598914.708,47.363,28.320,30.762,71.777,25.879
1584598914.712,50.781,27.344,29.785,98.633,19.531
1584598914.716,15.625,26.367,24.902,-0.488,40.527
1584598914.720,7.812,25.879,28.809,-51.270,27.832
1584598914.724,40.527,28.320,34.180,48.828,44.922
1584598914.727,45.898,28.320,28.320,110.352,73.730
1584598914.731,19.043,22.949,22.949,27.344,36.621
1584598914.735,1.953,25.879,25.391,-54.199,60.547
1584598914.739,23.926,30.273,30.762,12.695,87.891
1584598914.743,46.875,28.809,33.203,107.422,7.324
1584598914.747,24.414,21.973,31.250,66.895,53.711
1584598914.751,-1.953,18.066,29.297,-33.691,71.777
1584598914.755,16.113,20.996,30.762,-13.672,-12.207
1584598914.759,43.945,22.461,30.762,88.867,8.301
1584598914.763,35.156,24.902,29.785,84.473,-20.020
1584598914.767,8.301,25.391,31.250,-15.625,13.672
1584598914.770,10.742,24.902,30.273,-41.504,51.270
1584598914.774,39.062,29.297,28.320,54.199,3.906
1584598914.778,41.992,32.227,28.809,89.844,15.625
1584598914.782,11.230,28.320,26.855,8.301,-14.648
1584598914.786,4.883,22.949,23.926,-52.246,3.418
1584598914.790,35.645,26.855,26.855,31.250,29.297
1584598914.794,46.875,31.250,28.809,107.910,26.855
1584598914.798,24.414,28.809,28.809,47.852,53.223
1584598914.802,3.418,25.391,30.273,-44.922,49.316
1584598914.806,22.949,29.785,27.832,-0.977,-2.930
1584598914.810,45.898,34.180,27.832,98.633,-26.855
1584598914.813,33.691,30.273,27.344,72.754,-21.484
1584598914.817,1.465,22.461,22.949,-41.992,0.000
1584598914.821,5.859,24.902,23.438,-45.410,48.340
1584598914.825,38.086,32.227,29.785,73.242,67.871
1584598914.829,36.133,31.250,29.785,89.844,78.613
1584598914.833,6.836,24.902,26.367,-14.648,67.383
1584598914.837,4.883,21.484,31.250,-50.293,38.574
1584598914.841,41.016,29.785,39.062,54.688,58.594
1584598914.845,47.852,31.250,37.598,103.516,9.277
1584598914.849,15.137,26.367,27.832,15.625,-20.020
1584598914.852,3.418,27.344,28.809,-57.617,-10.742
1584598914.856,25.879,27.344,35.645,23.438,5.371
1584598914.860,37.109,25.879,31.738,104.004,26.855
1584598914.864,16.602,21.484,29.297,37.598,31.738
1584598914.868,-3.906,21.973,29.297,-58.594,63.477
1584598914.872,16.602,26.855,31.250,-4.395,65.430
1584598914.876,42.480,30.273,32.227,99.121,39.551
1584598914.880,31.738,25.879,29.297,61.523,34.668
1584598914.884,5.371,20.508,27.832,-45.898,37.109
1584598914.888,18.555,24.414,29.785,-34.668,68.359
1584598914.892,46.875,24.902,28.320,72.754,42.969
1584598914.895,35.645,22.949,25.879,77.637,-10.254
1584598914.899,4.883,24.414,26.855,-26.367,-6.836
1584598914.903,1.465,21.973,27.832,-58.594,-35.645
1584598914.907,30.762,26.367,25.391,49.316,-8.301
1584598914.911,37.109,28.809,20.020,95.215,59.570
1584598914.915,11.230,25.391,16.602,3.418,41.504
1584598914.919,1.953,31.250,18.066,-60.547,11.230
1584598914.923,29.297,31.250,20.020,20.996,2.930
1584598914.927,48.828,28.320,21.973,100.586,0.000
1584598914.931,23.926,28.809,21.973,38.086,-1.465
1584598914.935,1.953,25.879,18.066,-54.199,44.434
1584598914.938,27.344,28.809,21.484,-1.465,55.176
1584598914.942,49.316,31.250,27.344,102.539,-0.488
1584598914.946,31.738,26.855,22.461,68.359,-4.883
1584598914.950,9.277,24.902,19.043,-33.691,33.203
1584598914.954,20.996,25.879,21.484,-24.902,49.316
1584598914.958,48.828,25.879,23.926,82.520,29.785
1584598914.962,51.270,30.273,23.438,98.633,20.508
1584598914.966,21.484,28.320,21.973,-11.719,-22.461
1584598914.970,1.465,24.414,20.508,-68.848,21.973
1584598914.974,23.438,28.809,20.996,29.785,49.316
1584598914.977,41.992,31.250,21.484,97.168,0.977
1584598914.981,15.137,27.344,21.484,15.137,-6.836
1584598914.985,1.465,23.438,22.461,-58.594,21.973
1584598914.989,35.645,29.785,29.297,27.832,27.344
1584598914.993,46.875,33.691,31.250,108.887,-37.109
1584598914.997,19.043,29.785,24.902,45.410,-41.504
1584598915.001,-1.465,26.855,23.926,-46.387,31.250
1584598915.005,22.461,29.297,24.902,-6.836,16.113
1584598915.009,47.852,35.156,29.297,98.145,20.996
1584598915.013,35.156,33.691,30.762,75.195,35.156
1584598915.017,8.789,28.809,29.785,-33.691,28.809
1584598915.020,17.578,33.691,30.762,-34.180,31.738
1584598915.024,49.805,37.109,30.762,81.543,69.824
1584598915.028,49.316,34.668,30.273,103.516,100.098
1584598915.032,17.578,28.809,28.320,0.488,88.379
1584598915.036,14.648,30.273,26.367,-47.363,73.730
1584598915.040,44.434,34.180,28.809,48.340,27.832
1584598915.044,51.270,31.250,29.785,108.398,56.152
1584598915.048,27.344,24.902,28.320,34.180,45.898
1584598915.052,10.742,22.461,26.855,-54.688,27.344
1584598915.056,26.367,27.832,26.367,0.488,46.387
1584598915.060,40.527,30.762,29.785,105.957,37.598
1584598915.063,19.043,29.297,28.320,66.895,3.418
1584598915.067,-10.254,24.414,23.926,-45.898,7.812
1584598915.071,7.324,22.461,25.879,-29.297,51.270
1584598915.075,40.527,26.367,29.785,76.172,38.574
1584598915.079,37.598,26.367,29.297,84.473,2.441
1584598915.083,9.766,21.484,27.344,-15.137,-0.488
1584598915.087,7.324,21.973,25.879,-48.828,42.480
1584598915.091,40.039,25.879,31.250,51.270,80.566
1584598915.095,46.387,25.879,33.691,98.145,72.754
1584598915.099,15.137,25.879,26.855,12.207,39.062
1584598915.102,4.883,25.391,24.902,-61.035,51.758
1584598915.106,30.762,25.391,26.367,11.230,-9.277
1584598915.110,43.945,30.762,28.809,93.750,0.000
1584598915.114,21.484,28.320,27.344,41.992,65.918
1584598915.118,1.953,21.484,25.879,-52.734,5.371
1584598915.122,22.949,26.855,29.785,-11.719,-3.418
1584598915.126,48.828,32.715,32.227,95.215,29.785
1584598915.130,38.086,29.297,28.809,74.219,57.129
1584598915.134,9.277,23.438,25.879,-35.156,57.129
1584598915.138,17.090,26.367,29.785,-42.969,63.965
1584598915.142,45.410,33.691,31.250,64.453,6.836
1584598915.145,39.062,28.320,29.785,87.891,-23.926
1584598915.149,6.836,18.066,28.809,-18.066,44.434
1584598915.153,2.930,20.508,28.320,-68.359,23.438
1584598915.157,36.133,30.273,31.250,38.574,44.434
1584598915.161,47.363,28.809,30.762,106.445,71.777
1584598915.165,22.461,23.926,27.832,33.691,37.598
1584598915.169,8.789,29.785,28.320,-53.223,12.207
1584598915.173,35.645,29.785,33.203,11.230,-22.949
1584598915.177,58.594,26.367,31.738,103.516,36.621
1584598915.181,38.574,23.926,25.879,58.594,51.270
1584598915.185,13.672,20.508,24.902,-41.992,10.254
1584598915.188,30.762,26.855,25.391,-20.996,71.289
1584598915.192,56.641,30.762,27.832,82.520,89.844
1584598915.196,49.805,28.320,28.320,73.242,-1.465
1584598915.200,18.555,26.367,29.297,-31.250,-5.371
1584598915.204,20.020,25.391,30.762,-46.387,32.715
1584598915.208,48.828,27.832,31.250,59.570,49.805
1584598915.212,47.363,28.809,33.691,88.379,95.703
1584598915.216,14.160,28.320,31.738,11.230,80.566
1584598915.220,4.395,25.391,28.320,-48.828,40.039
1584598915.224,33.203,25.391,28.320,24.902,38.086
1584598915.227,40.039,24.902,31.250,93.262,48.340
1584598915.231,13.672,20.508,30.762,22.949,32.715
1584598915.235,-2.441,19.043,28.809,-57.617,4.883
1584598915.239,22.461,22.461,27.832,6.836,-11.719
1584598915.243,39.551,26.367,29.785,96.680,21.973
1584598915.247,17.578,24.902,30.273,49.316,35.645
1584598915.251,-3.418,24.414,29.297,-50.781,-3.906
1584598915.255,15.625,26.855,32.715,-30.273,-23.438
1584598915.259,44.922,33.691,36.133,78.125,14.160
1584598915.263,38.086,32.715,32.227,79.102,50.781
1584598915.267,9.277,25.879,27.832,-23.438,23.926
1584598915.270,15.137,27.832,26.855,-37.109,2.441
1584598915.274,50.781,34.180,31.738,78.125,30.762
1584598915.278,49.316,31.250,34.180,108.398,46.387
1584598915.282,14.160,22.461,26.855,8.789,79.102
1584598915.286,11.230,21.484,24.414,-48.340,35.156
1584598915.290,39.062,24.902,28.809,44.434,10.254
1584598915.294,45.898,27.344,30.762,112.305,3.418
1584598915.298,16.113,23.926,28.320,36.133,-14.648
1584598915.302,-3.418,22.461,26.855,-50.781,1.953
1584598915.306,23.926,31.250,28.809,15.625,45.410
1584598915.310,44.922,34.180,29.297,111.328,50.781
1584598915.313,24.902,26.367,26.855,68.848,60.059
1584598915.317,-2.441,22.949,25.391,-31.250,129.883
1584598915.321,18.066,30.762,26.855,-10.742,59.082
1584598915.325,51.270,33.691,27.832,97.656,13.184
1584598915.329,38.574,30.273,27.832,95.703,46.387
1584598915.333,8.301,25.391,25.391,-12.207,30.762
1584598915.337,16.113,28.320,24.902,-37.109,13.184
1584598915.341,49.805,38.574,30.273,70.312,31.250
1584598915.345,46.875,36.133,29.297,97.168,12.207
1584598915.349,11.719,28.320,25.879,3.906,15.137
1584598915.352,4.883,28.809,25.879,-42.480,28.809
1584598915.356,36.621,33.203,31.250,41.504,5.371
1584598915.360,47.852,32.715,30.762,111.816,6.836
1584598915.364,27.344,28.320,25.879,44.434,-6.348
1584598915.368,10.742,29.297,25.879,-41.016,9.277
1584598915.372,27.832,34.668,29.297,16.602,15.625
1584598915.376,45.410,34.668,31.250,115.723,9.766
1584598915.380,23.926,30.762,31.250,73.242,-51.270
1584598915.384,2.441,29.297,32.715,-34.180,-47.852
1584598915.388,18.066,28.809,29.297,-19.043,28.809
1584598915.392,43.457,30.273,26.855,87.891,24.902
1584598915.395,35.156,28.809,30.273,94.727,5.859
1584598915.399,6.836,26.367,28.809,-4.883,9.277
1584598915.403,7.324,26.855,26.855,-34.668,26.855
1584598915.407,34.180,23.926,30.273,69.824,-0.488
1584598915.411,37.598,22.461,27.832,110.352,-38.086
1584598915.415,9.277,21.973,23.926,19.531,-9.277
1584598915.419,-0.488,21.973,24.902,-41.504,21.973
1584598915.423,28.320,26.367,27.344,39.551,13.184
1584598915.427,43.457,27.832,27.832,112.305,54.199
1584598915.431,20.508,25.391,27.344,48.340,74.707
1584598915.435,1.953,23.926,25.879,-45.410,54.199
1584598915.438,20.996,29.785,25.879,-3.906,45.410
1584598915.442,46.387,32.227,26.855,101.562,43.945
1584598915.446,27.344,24.414,22.949,74.707,43.457
1584598915.450,-4.395,21.484,18.066,-36.133,25.391
1584598915.454,11.719,25.391,24.414,-28.809,-7.812
1584598915.458,42.480,27.344,25.879,83.984,-40.039
1584598915.462,33.691,26.367,17.578,94.727,-13.184
1584598915.466,4.883,23.438,17.090,-1.465,14.648
1584598915.470,5.371,24.414,21.484,-37.598,-5.859
1584598915.474,38.574,29.297,24.902,62.012,71.289
1584598915.477,50.781,29.785,25.391,115.234,110.352
1584598915.481,24.902,27.344,23.926,25.391,8.301
1584598915.485,11.230,26.855,28.809,-45.410,18.066
1584598915.489,34.668,28.320,29.785,37.598,50.781
1584598915.493,52.246,31.250,28.809,125.488,17.090
1584598915.497,27.832,25.879,27.344,71.777,58.105
1584598915.501,-0.977,21.484,24.902,-30.273,31.738
1584598915.505,20.508,25.391,26.855,2.441,9.766
1584598915.509,47.363,27.832,27.832,108.887,22.949
1584598915.513,33.691,28.809,26.367,89.844,-1.953
1584598915.517,3.906,24.902,26.367,-13.184,62.500
1584598915.520,5.859,25.391,28.809,-24.414,127.930
1584598915.524,40.039,28.809,29.785,74.219,85.449
1584598915.528,41.992,26.855,29.785,103.516,43.457
1584598915.532,11.719,26.367,27.344,20.020,41.992
1584598915.536,6.836,28.809,26.367,-38.086,13.672
1584598915.540,34.180,29.785,28.809,47.363,79.102
1584598915.544,44.434,30.273,31.738,123.047,108.398
1584598915.548,20.508,27.832,29.297,56.641,21.484
1584598915.552,-1.465,22.949,29.297,-41.016,-14.648
1584598915.556,19.531,26.855,30.273,2.930,21.484
1584598915.560,43.945,30.273,27.832,100.098,49.805
1584598915.563,25.879,28.320,27.344,73.730,8.301
1584598915.567,0.488,24.414,24.902,-31.250,-16.113
1584598915.571,15.137,22.461,27.832,-25.391,-21.973
1584598915.575,41.504,29.785,30.273,88.379,-17.090
1584598915.579,36.133,29.297,27.832,101.562,20.020
1584598915.583,6.348,22.949,26.367,-2.441,5.859
1584598915.587,1.465,23.926,23.926,-42.969,-27.344
1584598915.591,30.762,27.344,27.344,63.965,13.672
1584598915.595,41.016,24.902,27.832,114.746,46.387
1584598915.599,12.207,20.020,24.414,25.879,36.621
1584598915.602,0.977,20.996,20.508,-48.828,26.855
1584598915.606,29.297,26.855,20.508,30.762,3.418
1584598915.610,42.969,26.855,22.949,111.816,25.391
1584598915.614,17.578,20.996,22.461,54.199,25.391
1584598915.618,-5.371,19.043,23.438,-43.945,30.762
1584598915.622,17.578,26.367,22.461,-8.789,59.082
1584598915.626,43.945,28.809,21.973,97.168,-26.855
1584598915.630,26.855,23.926,24.902,80.078,-33.691
1584598915.634,-3.418,22.949,23.926,-28.320,29.785
1584598915.638,9.277,28.809,21.973,-30.762,66.406
1584598915.642,42.480,30.762,21.973,79.590,69.824
1584598915.645,43.457,23.926,25.879,102.539,61.035
1584598915.649,8.301,20.508,25.391,0.488,5.371
1584598915.653,-1.465,22.461,20.508,-48.828,-20.508
1584598915.657,32.715,26.367,23.926,56.152,37.598
1584598915.661,43.945,28.809,25.391,116.699,78.125
1584598915.665,17.090,25.391,24.902,39.062,62.988
1584598915.669,3.906,26.367,24.902,-38.086,33.691
1584598915.673,31.250,31.738,27.344,31.738,65.430
1584598915.677,49.316,29.785,30.762,115.234,30.762
1584598915.681,28.809,27.832,25.879,65.918,31.738
1584598915.685,7.324,26.367,25.879,-26.855,34.180
1584598915.688,25.391,26.367,31.250,2.441,-21.484
1584598915.692,50.293,30.273,33.203,104.492,10.254
1584598915.696,37.598,30.273,32.715,94.238,51.270
1584598915.700,7.324,25.879,27.832,-13.672,76.660
1584598915.704,17.090,27.832,26.855,-25.879,20.508
1584598915.708,47.363,29.297,31.738,83.496,-14.648
1584598915.712,42.969,28.320,33.203,101.074,6.348
1584598915.716,11.719,24.902,30.762,5.371,46.875
1584598915.720,10.254,21.484,30.273,-42.480,64.941
1584598915.724,45.410,29.297,31.738,53.223,-4.883
1584598915.727,50.781,30.762,31.738,119.141,-16.602
1584598915.731,20.508,22.461,28.320,37.109,18.555
1584598915.735,9.277,21.973,24.414,-43.945,45.410
1584598915.739,39.551,30.273,27.344,26.855,69.336
1584598915.743,57.129,30.762,31.250,116.211,20.020
1584598915.747,29.297,23.926,30.762,64.453,11.230
1584598915.751,5.859,24.902,26.855,-36.133,32.715
1584598915.755,26.855,29.785,26.855,0.977,7.812
1584598915.759,54.688,34.668,30.762,107.422,-14.160
1584598915.763,41.992,35.645,29.785,88.379,17.578
1584598915.767,14.648,31.250,26.855,-21.973,50.781
1584598915.770,17.578,31.738,26.367,-27.832,21.973
1584598915.774,48.828,34.668,27.832,85.938,18.066
1584598915.778,49.316,33.691,26.855,109.375,37.109
1584598915.782,14.648,29.297,23.438,10.254,52.734
1584598915.786,6.348,31.250,24.902,-41.504,21.973
1584598915.790,33.691,36.133,29.297,55.664,57.617
1584598915.794,41.504,32.227,29.785,115.234,77.148
1584598915.798,9.766,26.855,24.414,31.738,36.621
1584598915.802,-4.883,28.320,22.461,-49.316,55.176
1584598915.806,24.414,32.227,24.414,21.973,65.430
1584598915.810,45.410,32.227,24.414,110.352,71.289
1584598915.813,25.391,26.367,23.926,63.477,26.855
1584598915.817,1.465,25.879,23.926,-30.273,28.320
1584598915.821,14.160,28.320,24.902,-9.277,22.461
1584598915.825,38.574,30.762,27.832,97.656,-14.160
1584598915.829,26.855,27.344,23.438,92.285,5.859
1584598915.833,-6.348,18.066,22.461,-12.695,16.113
1584598915.837,-1.953,19.043,25.879,-35.645,27.832
1584598915.841,31.250,26.855,27.832,69.824,52.246
1584598915.845,28.809,27.344,27.832,104.980,40.039
1584598915.849,0.977,20.508,21.484,11.230,-23.438
1584598915.852,2.930,20.996,21.973,-53.223,-44.434
1584598915.856,33.203,29.297,28.320,26.855,20.996
1584598915.860,40.527,33.203,26.855,103.516,42.480
1584598915.864,13.672,25.879,21.973,42.969,-6.348
1584598915.868,-2.441,21.484,23.438,-43.945,-19.531
1584598915.872,23.438,24.902,29.785,11.719,16.113
1584598915.876,46.875,26.367,30.762,108.398,7.812
1584598915.880,27.832,24.414,29.297,72.754,39.062
1584598915.884,-0.977,22.461,26.855,-32.715,70.312
1584598915.888,16.602,25.879,27.344,-24.414,62.500
1584598915.892,47.852,33.203,27.344,84.473,26.367
1584598915.895,37.598,30.273,25.391,92.285,54.688
1584598915.899,12.207,22.461,25.879,-9.277,89.355
1584598915.903,10.742,24.414,23.926,-42.480,63.477
1584598915.907,39.551,31.250,25.391,65.430,53.223
1584598915.911,47.852,24.902,26.855,116.699,25.391
1584598915.915,18.066,16.113,24.414,28.809,22.949
1584598915.919,8.789,20.508,23.926,-42.969,35.645
1584598915.923,36.621,27.832,25.879,34.180,-4.395
1584598915.927,47.363,28.320,30.273,118.164,53.223
1584598915.931,22.461,22.461,30.273,61.035,109.863
1584598915.935,0.488,20.996,25.879,-43.945,46.875
1584598915.938,21.484,25.879,26.367,-5.371,8.301
1584598915.942,51.758,28.809,27.832,101.074,-11.719
1584598915.946,32.715,28.320,28.809,73.242,24.902
1584598915.950,1.953,26.855,27.832,-33.691,2.441
1584598915.954,16.113,29.297,27.832,-26.367,-10.742
1584598915.958,41.016,31.738,31.250,85.449,17.578
1584598915.962,37.109,29.785,28.320,103.027,0.488
1584598915.966,21.484,31.738,23.438,17.578,21.973
1584598915.970,22.461,32.227,32.715,-21.973,16.113
1584598915.974,29.297,26.855,38.574,56.152,0.000
1584598915.977,26.855,21.484,36.133,103.027,45.410
1584598915.981,6.836,16.113,36.621,31.250,29.297
1584598915.985,-4.883,16.602,33.203,-42.480,15.137
1584598915.989,16.602,21.484,33.691,24.902,31.738
1584598915.993,29.297,21.973,40.039,103.027,17.090
1584598915.997,9.766,17.578,40.527,53.711,-9.766
1584598916.001,-8.789,15.137,37.109,-31.738,27.344
1584598916.005,14.160,22.461,38.574,-1.465,49.316
1584598916.009,37.109,26.855,43.457,97.656,11.230
1584598916.013,23.438,23.926,43.457,88.379,28.809
1584598916.017,3.418,17.578,41.992,-7.324,52.734
1584598916.020,20.020,13.184,45.410,-5.371,51.758
1584598916.024,51.758,17.578,48.340,107.910,39.551
1584598916.028,47.852,20.020,46.387,130.371,42.969
1584598916.032,18.066,18.555,44.922,31.738,70.312
1584598916.036,20.508,20.020,45.898,-13.672,86.426
1584598916.040,56.641,22.461,44.434,83.984,72.266
1584598916.044,62.500,23.926,39.551,143.066,25.879
1584598916.048,30.762,23.438,35.156,54.199,0.977
1584598916.052,19.531,20.020,35.645,-31.250,15.137
1584598916.056,48.828,21.973,41.016,48.828,6.836
1584598916.060,68.359,22.949,41.992,143.555,13.184
1584598916.063,44.922,19.531,37.598,90.332,20.996
1584598916.067,20.996,19.043,35.645,-9.766,3.906
1584598916.071,41.992,22.461,39.062,24.414,23.438
1584598916.075,64.453,26.855,40.527,131.348,55.176
1584598916.079,50.781,25.391,37.598,114.258,38.574
1584598916.083,25.391,21.484,36.133,2.441,-31.250
1584598916.087,33.203,25.879,35.156,-11.230,-2.441
1584598916.091,64.941,29.785,36.133,103.516,51.270
1584598916.095,61.035,26.367,32.715,122.559,24.902
1584598916.099,28.320,23.438,29.785,21.484,8.789
1584598916.102,19.531,23.438,30.762,-24.902,3.906
1584598916.106,52.734,26.367,32.715,69.336,-4.395
1584598916.110,63.477,27.344,32.227,134.277,13.184
1584598916.114,33.203,25.391,32.227,64.453,76.172
1584598916.118,16.602,24.414,31.250,-21.484,54.688
1584598916.122,43.457,27.344,33.203,34.668,17.578
1584598916.126,66.406,29.785,36.621,128.906,-11.719
1584598916.130,46.387,25.391,35.645,84.961,-42.969
1584598916.134,20.996,23.438,32.227,-16.113,-23.926
1584598916.138,38.086,25.879,31.250,4.395,26.367
1584598916.142,62.500,29.785,35.156,111.328,-7.812
1584598916.145,45.410,30.273,35.156,111.328,-7.812
1584598916.149,15.137,26.367,29.297,7.812,60.059
1584598916.153,18.066,25.879,30.762,-22.949,-1.953
1584598916.157,50.781,28.320,36.621,84.473,-15.625
1584598916.161,53.711,29.785,35.645,125.488,33.203
1584598916.165,17.578,22.461,33.203,32.227,37.598
1584598916.169,10.254,20.996,34.180,-34.180,14.160
1584598916.173,44.922,30.273,38.086,48.340,44.922
1584598916.177,56.152,30.273,39.062,123.535,30.273
1584598916.181,26.367,22.949,36.133,63.477,52.734
1584598916.185,4.395,20.508,35.645,-35.156,57.129
1584598916.188,27.344,28.809,33.691,-0.977,21.973
1584598916.192,51.758,35.645,32.715,103.516,-7.324
1584598916.196,33.691,28.809,32.715,80.566,-0.488
1584598916.200,4.883,27.344,26.367,-24.902,51.270
1584598916.204,20.020,31.250,27.344,-22.461,35.645
1584598916.208,48.340,37.109,28.809,86.914,27.344
1584598916.212,38.574,31.738,27.344,100.098,8.789
1584598916.216,6.348,24.414,29.785,1.953,-15.137
1584598916.220,4.395,27.344,30.273,-43.457,36.621
1584598916.224,41.992,31.738,33.691,57.129,44.434
1584598916.227,47.852,30.762,32.227,115.723,48.340
1584598916.231,13.672,24.902,25.879,35.156,47.852
1584598916.235,-2.441,24.902,28.320,-43.457,0.977
1584598916.239,25.879,31.250,34.668,22.461,-19.531
1584598916.243,46.875,31.738,34.668,113.770,-27.344
1584598916.247,27.344,30.273,30.762,75.684,-0.977
1584598916.251,1.465,30.273,28.320,-28.320,15.625
1584598916.255,18.555,31.250,34.668,-8.301,33.691
1584598916.259,51.270,38.086,36.621,102.539,27.344
1584598916.263,43.945,38.574,31.738,100.586,33.691
1584598916.267,14.160,29.785,30.762,-4.395,69.336
1584598916.270,17.090,30.273,31.250,-31.250,20.508
1584598916.274,47.363,35.156,31.250,68.359,13.672
1584598916.278,50.781,35.645,32.227,105.957,39.062
1584598916.282,27.832,35.645,27.832,21.484,35.156
1584598916.286,20.996,34.668,26.367,-39.551,13.672
1584598916.290,43.945,37.109,28.320,45.410,58.105
1584598916.294,55.176,36.621,27.344,114.746,77.637
1584598916.298,29.785,30.273,26.855,53.223,52.246
1584598916.302,10.254,29.297,25.879,-37.598,45.898
1584598916.306,33.691,31.738,27.344,12.207,24.902
1584598916.310,57.129,31.250,27.832,112.305,44.922
1584598916.313,42.480,27.832,27.832,82.031,33.691
1584598916.317,13.672,23.438,26.855,-23.926,5.859
1584598916.321,22.461,23.438,29.785,-21.484,-25.391
1584598916.325,53.711,30.762,31.250,91.309,-49.805
1584598916.329,47.363,29.297,28.320,102.051,-15.137
1584598916.333,16.602,20.508,27.832,-3.906,41.992
1584598916.337,17.578,24.414,26.367,-34.180,47.363
1584598916.341,46.387,28.320,30.273,71.777,-29.297
1584598916.345,45.410,26.367,32.715,113.281,-10.742
1584598916.349,12.207,20.996,30.273,20.508,10.742
1584598916.352,1.953,21.973,27.344,-50.293,6.836
1584598916.356,29.785,29.785,29.785,33.691,12.695
1584598916.360,41.016,30.273,30.762,109.863,26.855
1584598916.364,14.160,25.879,25.391,47.363,62.500
1584598916.368,-5.371,24.902,26.855,-44.922,41.016
1584598916.372,20.996,27.344,29.785,0.977,11.719
1584598916.376,43.457,30.273,27.344,102.051,2.441
1584598916.380,22.949,23.438,24.902,65.918,2.441
1584598916.384,-4.395,21.973,25.391,-40.039,17.578
1584598916.388,10.742,27.832,27.832,-24.902,57.129
1584598916.392,38.574,27.832,26.367,86.914,83.496
1584598916.395,30.762,23.926,23.926,95.703,64.453
1584598916.399,2.930,24.902,20.508,-9.277,68.359
1584598916.403,4.883,26.367,20.508,-41.992,83.008
1584598916.407,38.086,27.344,25.391,62.988,25.879
1584598916.411,43.457,26.367,24.902,107.422,-29.297
1584598916.415,16.113,23.438,21.484,19.531,-28.320
1584598916.419,2.930,25.391,22.461,-50.781,16.113
1584598916.423,26.855,25.879,23.926,26.855,-1.953
1584598916.427,41.992,28.809,23.438,103.516,-15.625
1584598916.431,17.578,30.762,22.949,44.922,42.480
1584598916.435,-2.930,26.855,21.484,-41.016,26.855
1584598916.438,21.973,30.273,20.996,3.418,-37.109
1584598916.442,46.387,34.180,21.973,102.051,-24.902
1584598916.446,35.156,30.762,21.484,80.078,-20.996
1584598916.450,6.348,30.273,17.578,-25.391,-29.297
1584598916.454,17.090,32.227,21.484,-22.461,27.832
1584598916.458,47.363,33.203,26.367,87.402,73.242
1584598916.462,37.598,30.273,25.879,94.727,39.062
1584598916.466,7.324,23.438,24.902,-5.859,23.926
1584598916.470,8.789,18.555,21.973,-43.457,-25.391
1584598916.474,38.574,23.438,23.926,56.152,-39.062
1584598916.477,41.504,28.809,27.344,112.305,56.641
1584598916.481,16.602,26.367,23.926,31.250,83.984
1584598916.485,6.836,24.414,21.973,-46.387,71.289
1584598916.489,31.250,30.273,24.414,32.715,75.684
1584598916.493,42.969,33.203,25.879,120.117,72.266
1584598916.497,15.625,26.367,22.461,57.129,19.531
1584598916.501,-4.883,20.508,19.531,-41.016,-6.348
1584598916.505,19.043,23.926,22.949,-3.906,3.418
1584598916.509,53.711,28.809,23.926,107.422,31.738
1584598916.513,50.293,29.785,20.020,98.633,73.730
1584598916.517,4.395,22.461,28.320,-19.043,23.438
1584598916.520,-6.836,23.926,33.691,-32.715,44.922
1584598916.524,31.250,32.227,27.344,84.961,63.965
1584598916.528,34.668,30.762,25.879,108.398,0.977
1584598916.532,4.395,22.949,25.879,14.160,40.527
1584598916.536,8.301,20.996,30.762,-22.461,74.219
1584598916.540,41.016,21.973,36.621,79.102,28.320
1584598916.544,46.875,21.484,36.133,126.953,7.812
1584598916.548,16.602,23.438,31.250,37.109,-14.160
1584598916.552,2.930,21.973,28.809,-37.109,27.832
1584598916.556,33.203,21.973,28.320,30.273,41.504
1584598916.560,46.387,25.391,26.367,109.863,-16.602
1584598916.563,21.484,24.902,25.391,62.500,23.438
1584598916.567,1.465,23.438,25.391,-26.367,55.664
1584598916.571,17.090,24.902,29.785,0.000,35.156
1584598916.575,43.457,25.879,36.133,102.539,64.453
1584598916.579,37.598,24.902,32.715,96.191,59.082
1584598916.583,5.859,21.484,25.391,-12.695,47.363
1584598916.587,10.254,23.438,25.391,-35.645,64.453
1584598916.591,43.945,28.320,25.391,67.383,-4.395
1584598916.595,45.898,28.320,23.926,104.004,-6.836
1584598916.599,16.602,24.414,22.461,20.996,27.832
1584598916.602,5.371,22.949,22.461,-48.340,19.531
1584598916.606,38.086,28.809,24.414,29.785,0.000
1584598916.610,53.711,33.203,24.902,112.793,0.000
1584598916.614,29.297,31.738,23.438,60.059,15.625
1584598916.618,13.672,26.367,24.902,-34.180,14.648
1584598916.622,32.715,25.879,24.902,6.348,11.719
1584598916.626,50.293,28.320,23.438,110.352,36.621
1584598916.630,31.738,25.391,24.414,88.379,56.641
1584598916.634,0.488,20.508,24.414,-24.414,35.156
1584598916.638,12.207,21.484,25.879,-26.367,7.812
1584598916.642,46.875,29.785,28.809,84.473,45.898
1584598916.645,42.969,30.273,31.250,103.027,84.473
1584598916.649,7.324,21.973,26.855,0.977,10.742
1584598916.653,5.371,27.344,22.461,-42.480,-7.812
1584598916.657,42.480,34.668,27.832,67.871,43.457
1584598916.661,49.805,34.668,25.879,119.629,41.504
1584598916.665,17.578,29.297,20.996,31.250,15.137
1584598916.669,8.789,26.367,24.902,-41.504,26.367
1584598916.673,39.551,30.762,29.785,37.109,49.805
1584598916.677,54.199,28.320,29.297,118.652,24.414
1584598916.681,29.297,27.344,26.367,55.664,-11.719
1584598916.685,5.371,27.344,23.438,-46.387,7.324
1584598916.688,28.320,30.762,23.926,3.418,59.570
1584598916.692,56.641,32.227,26.367,109.863,60.059
1584598916.696,36.621,30.762,25.391,75.684,-10.254
1584598916.700,6.348,28.320,25.879,-28.320,5.859
1584598916.704,16.602,24.902,30.762,-22.949,13.184
1584598916.708,46.875,25.879,33.691,86.914,-6.348
1584598916.712,43.945,25.391,31.738,104.980,1.465
1584598916.716,7.812,22.949,26.855,6.348,37.109
1584598916.720,5.371,22.949,27.832,-35.645,105.957
1584598916.724,40.039,27.344,29.297,58.594,62.988
1584598916.727,45.410,29.785,26.855,107.422,-2.930
1584598916.731,17.090,23.438,25.879,27.344,-27.344
1584598916.735,0.488,20.020,22.949,-48.828,-3.906
1584598916.739,26.367,24.902,21.484,19.043,16.602
1584598916.743,49.316,28.809,25.391,106.445,21.973
1584598916.747,23.926,25.879,24.414,60.547,25.879
1584598916.751,1.465,21.973,20.508,-39.551,51.758
1584598916.755,24.414,22.949,21.484,-18.066,18.555
1584598916.759,45.410,29.297,23.926,89.355,-9.766
1584598916.763,25.879,27.344,22.461,83.984,22.461
1584598916.767,-3.906,20.996,22.461,-22.949,8.301
1584598916.770,4.395,27.832,24.414,-36.621,16.602
1584598916.774,31.738,35.156,27.832,75.195,38.574
1584598916.778,32.715,36.133,29.785,102.051,32.715
1584598916.782,4.395,29.297,27.344,-1.465,52.734
1584598916.786,-1.953,22.949,24.414,-55.664,23.438
1584598916.790,27.344,27.832,24.902,40.527,-15.625
1584598916.794,38.574,32.715,28.320,108.398,8.301
1584598916.798,8.789,29.297,22.949,30.273,41.992
1584598916.802,-10.254,25.879,21.973,-59.570,64.941
1584598916.806,22.461,29.785,26.855,14.160,37.109
1584598916.810,44.434,30.762,27.832,111.816,22.949
1584598916.813,22.461,26.367,29.297,63.965,54.688
1584598916.817,4.395,23.926,25.391,-33.203,45.410
1584598916.821,23.438,26.855,25.879,-6.348,3.418
1584598916.825,51.758,31.738,32.715,104.004,26.367
1584598916.829,41.016,31.250,32.227,96.680,65.918
1584598916.833,9.277,27.344,30.273,-11.719,50.293
1584598916.837,16.113,26.855,34.180,-26.855,69.336
1584598916.841,48.340,31.250,33.691,81.055,47.363
1584598916.845,44.922,30.273,32.715,105.469,-12.695
1584598916.849,13.184,25.879,30.273,4.883,20.996
1584598916.852,9.766,28.320,31.738,-45.410,75.195
1584598916.856,40.039,30.273,34.668,48.828,69.824
1584598916.860,51.758,30.762,33.691,116.211,65.918
1584598916.864,25.391,30.273,32.227,43.457,35.156
1584598916.868,5.371,27.344,30.762,-42.480,13.184
1584598916.872,29.297,26.367,32.227,16.602,17.090
1584598916.876,53.711,28.320,34.668,114.746,39.062
1584598916.880,33.691,26.367,31.738,73.242,46.875
1584598916.884,6.836,24.414,26.855,-36.133,-4.883
1584598916.888,18.555,25.879,30.273,-16.602,25.391
1584598916.892,42.480,29.785,35.156,82.031,4.883
1584598916.895,33.691,29.297,34.180,83.984,-12.207
1584598916.899,2.930,24.414,28.320,-12.207,-21.973
1584598916.903,0.977,29.785,25.879,-41.992,-0.977
1584598916.907,32.715,33.203,32.227,66.895,40.527
1584598916.911,36.621,30.762,36.621,114.258,44.922
1584598916.915,3.906,25.391,30.273,21.484,51.758
1584598916.919,0.977,23.926,28.320,-52.246,10.742
1584598916.923,32.715,30.273,32.227,31.250,-43.945
1584598916.927,41.504,31.250,30.762,112.305,-20.996
1584598916.931,12.695,29.785,25.391,47.363,-27.344
1584598916.935,-1.953,30.762,24.414,-50.293,-48.340
1584598916.938,20.020,31.738,27.832,-8.301,36.133
1584598916.942,41.992,34.668,29.297,97.656,88.379
1584598916.946,30.762,34.668,29.297,84.473,48.340
1584598916.950,0.488,27.344,26.855,-22.461,18.555
1584598916.954,16.602,21.484,30.762,-25.879,26.367
1584598916.958,59.082,28.809,34.668,92.773,77.637
1584598916.962,44.922,32.227,28.320,101.562,9.766
1584598916.966,1.465,28.809,20.996,-13.672,-64.453
1584598916.970,-0.488,33.203,19.531,-67.383,-51.270
1584598916.974,31.250,36.621,22.461,32.227,18.555
1584598916.977,41.016,36.133,23.926,98.633,49.805
1584598916.981,14.160,30.273,24.902,24.902,30.762
1584598916.985,0.000,26.367,23.926,-58.594,23.438
1584598916.989,30.762,30.273,22.949,8.301,13.672
1584598916.993,55.176,35.156,27.832,107.910,87.891
1584598916.997,32.715,30.762,26.855,71.289,89.844
1584598917.001,5.859,23.438,21.484,-34.180,-32.227
1584598917.005,22.949,25.391,22.949,-13.672,-34.180
1584598917.009,49.805,32.227,25.391,99.609,15.137
1584598917.013,35.156,31.250,25.391,93.262,16.602
1584598917.017,4.883,24.414,23.438,-15.137,39.551
1584598917.020,16.113,24.902,25.879,-33.203,1.953
1584598917.024,46.387,28.320,30.273,70.801,50.293
1584598917.028,44.434,31.250,32.715,105.469,69.824
1584598917.032,14.160,30.762,28.809,17.090,41.504
1584598917.036,5.859,29.785,24.902,-42.480,-6.836
1584598917.040,39.551,33.203,33.203,49.805,-48.828
1584598917.044,46.875,31.250,37.109,119.629,-14.648
1584598917.048,18.555,23.926,28.320,45.898,-6.348
1584598917.052,2.930,20.996,23.926,-38.574,29.785
1584598917.056,25.391,22.949,30.273,19.043,25.391
1584598917.060,44.434,26.367,32.227,112.793,-9.277
1584598917.063,20.508,27.832,29.297,75.684,50.293
1584598917.067,-2.930,23.926,25.391,-33.691,90.332
1584598917.071,13.184,26.367,23.926,-22.461,20.020
1584598917.075,39.551,35.645,26.367,84.473,-25.391
1584598917.079,31.250,31.738,26.367,88.867,3.418
1584598917.083,3.906,24.414,23.438,-16.113,39.062
1584598917.087,10.254,26.367,28.320,-41.016,67.383
1584598917.091,42.480,29.785,34.668,68.848,36.621
1584598917.095,43.945,28.320,30.762,109.863,22.461
1584598917.099,14.648,22.461,24.414,20.996,30.273
1584598917.102,3.418,25.879,23.926,-49.805,18.066
1584598917.106,31.250,30.273,27.832,33.691,29.297
1584598917.110,47.363,30.273,30.762,112.793,55.176
1584598917.114,16.602,28.320,25.879,45.898,17.090
1584598917.118,-2.930,22.461,22.949,-51.270,48.340
1584598917.122,28.809,22.949,26.855,0.977,36.133
1584598917.126,51.270,31.250,27.832,101.074,13.184
1584598917.130,25.879,26.855,26.855,61.523,79.590
1584598917.134,0.000,22.461,30.273,-41.992,56.641
1584598917.138,15.625,27.832,32.715,-22.461,4.883
1584598917.142,41.504,27.832,28.320,83.984,-27.832
1584598917.145,34.668,28.320,26.855,87.891,17.090
1584598917.149,2.930,23.438,24.902,-13.672,67.871
1584598917.153,5.371,21.973,24.902,-45.410,42.480
1584598917.157,42.480,26.855,29.297,57.129,0.488
1584598917.161,49.316,28.320,30.762,101.074,2.441
1584598917.165,12.207,24.902,29.785,11.719,2.930
1584598917.169,-2.441,24.414,29.297,-54.199,13.184
1584598917.173,34.180,30.762,29.785,35.156,60.547
1584598917.177,48.828,32.227,32.227,112.305,55.176
1584598917.181,19.531,30.273,30.762,50.781,86.914
1584598917.185,2.930,23.926,30.273,-33.691,66.895
1584598917.188,26.367,24.414,31.250,13.672,-7.324
1584598917.192,48.340,29.785,27.832,113.281,31.738
1584598917.196,31.738,28.320,23.926,82.031,12.207
1584598917.200,7.324,25.879,21.973,-21.973,-11.719
1584598917.204,23.438,30.273,25.879,-8.789,63.477
1584598917.208,52.246,35.156,29.785,97.168,63.477
1584598917.212,45.898,28.320,28.809,98.145,69.824
1584598917.216,14.160,29.785,26.855,-6.348,49.316
1584598917.220,10.742,31.738,26.855,-41.504,21.973
1584598917.224,43.457,31.738,28.320,60.547,17.578
1584598917.227,47.363,31.738,29.297,109.375,11.719
1584598917.231,16.602,21.973,27.344,20.020,19.531
1584598917.235,6.348,20.996,23.438,-49.805,14.648
1584598917.239,34.180,26.855,24.414,31.738,47.363
1584598917.243,46.875,25.879,27.832,109.375,23.926
1584598917.247,18.555,25.879,25.879,47.852,-0.977
1584598917.251,-4.395,24.902,21.484,-49.316,11.719
1584598917.255,22.949,26.367,20.996,-6.836,11.230
1584598917.259,47.852,28.809,22.461,94.238,23.438
1584598917.263,24.902,23.926,20.508,66.895,8.789
1584598917.267,-1.953,24.414,15.137,-42.480,-0.488
1584598917.270,10.742,29.297,19.043,-40.527,33.691
1584598917.274,39.062,27.344,24.414,74.707,-24.902
1584598917.278,36.133,26.855,24.414,93.750,9.766
1584598917.282,7.324,25.391,23.438,-7.324,37.109
1584598917.286,3.906,20.996,24.414,-47.363,-26.855
1584598917.290,33.691,23.926,24.414,55.664,10.254
1584598917.294,35.645,25.879,20.996,104.004,53.711
1584598917.298,7.812,26.855,19.043,20.020,58.594
1584598917.302,-0.488,28.320,20.508,-53.223,48.828
1584598917.306,26.855,31.738,22.949,19.531,29.297
1584598917.310,45.410,32.227,25.391,102.051,57.129
1584598917.313,23.926,29.785,23.438,48.828,68.359
1584598917.317,-0.977,28.809,21.484,-40.527,28.320
