timestamps,TP9,AF7,AF8,TP10,Right AUX
1584600039.282,-3.906,4.395,29.785,-40.039,18.555
1584600039.286,57.617,23.926,26.855,69.824,-16.113
1584600039.290,66.895,33.203,27.344,108.398,9.766
1584600039.294,10.254,20.996,33.691,5.859,95.215
1584600039.298,-7.324,24.414,30.273,-56.152,31.250
1584600039.302,40.527,31.250,24.902,29.297,3.418
1584600039.306,60.059,35.645,26.367,101.074,-11.230
1584600039.310,14.160,27.832,21.484,20.996,15.137
1584600039.313,-5.371,23.438,20.020,-59.570,74.219
1584600039.317,41.016,31.738,24.902,5.371,68.359
1584600039.321,75.195,41.504,46.387,110.840,68.848
1584600039.325,43.457,25.879,49.316,74.219,60.547
1584600039.329,-10.742,16.602,22.949,-45.898,39.062
1584600039.333,8.789,35.156,20.508,-32.227,7.324
1584600039.337,69.824,32.227,37.598,90.332,7.812
1584600039.341,57.129,19.531,37.598,97.168,38.086
1584600039.345,-10.254,20.508,26.367,-20.020,74.707
1584600039.349,-10.742,27.344,27.832,-49.805,62.012
1584600039.352,41.504,31.250,33.691,51.758,32.227
1584600039.356,46.387,29.785,29.785,89.355,56.152
1584600039.360,0.000,25.879,25.391,-0.977,47.852
1584600039.364,-1.465,27.344,32.227,-41.992,-4.395
1584600039.368,55.176,31.738,31.738,45.410,-10.254
1584600039.372,68.848,24.902,24.902,117.188,31.250
1584600039.376,31.738,16.602,29.785,57.617,23.926
1584600039.380,1.465,18.555,23.926,-33.203,4.883
1584600039.384,32.227,31.250,23.438,2.930,63.965
1584600039.388,56.641,31.738,29.785,93.750,69.336
1584600039.392,31.250,29.785,26.367,68.848,25.391
1584600039.395,-2.441,32.227,21.973,-32.715,-5.371
1584600039.399,17.090,32.227,26.367,-26.855,-4.395
1584600039.403,64.453,26.855,31.738,70.801,12.207
1584600039.407,54.199,22.461,24.414,88.379,15.137
1584600039.411,17.578,19.043,26.367,5.371,0.000
1584600039.415,13.184,15.625,30.273,-30.273,7.812
1584600039.419,44.922,29.785,26.855,59.082,7.324
1584600039.423,47.852,35.645,17.090,95.703,16.113
1584600039.427,0.000,25.879,14.648,7.324,19.043
1584600039.431,-12.695,21.973,20.020,-53.223,4.883
1584600039.435,42.969,28.809,30.762,22.461,14.160
1584600039.438,75.195,31.250,35.645,106.445,30.273
1584600039.442,37.109,25.879,33.691,54.688,2.930
1584600039.446,-5.859,21.973,23.438,-50.293,22.949
1584600039.450,18.066,30.762,19.043,-32.715,89.844
1584600039.454,59.570,34.668,34.180,81.543,106.934
1584600039.458,44.434,27.832,38.574,74.707,65.430
1584600039.462,-0.488,16.602,34.180,-27.344,43.457
1584600039.466,7.812,19.043,35.645,-34.668,19.531
1584600039.470,51.758,38.574,30.762,66.895,-17.090
1584600039.474,62.012,36.621,31.250,101.074,-29.785
1584600039.477,24.902,32.227,35.156,14.160,33.691
1584600039.481,10.742,41.016,33.691,-24.414,43.945
1584600039.485,37.109,40.527,31.738,48.828,7.324
1584600039.489,39.551,28.809,34.668,84.473,51.758
1584600039.493,0.000,17.578,33.691,6.348,71.777
1584600039.497,-19.531,16.113,26.367,-61.035,25.879
1584600039.501,22.949,25.879,25.879,6.836,13.184
1584600039.505,61.523,31.250,27.344,110.352,43.457
1584600039.509,32.715,23.926,31.738,64.941,15.137
1584600039.513,-15.137,19.531,23.926,-44.922,31.250
1584600039.517,10.254,27.832,31.250,-20.508,35.645
1584600039.520,67.383,24.902,43.457,84.473,37.109
1584600039.524,55.664,26.367,38.574,79.102,46.875
1584600039.528,-2.930,32.227,23.438,-36.133,23.438
1584600039.532,9.277,28.320,27.832,-48.828,59.570
1584600039.536,63.965,31.250,41.504,68.848,76.660
1584600039.540,63.965,28.320,37.109,99.609,18.066
1584600039.544,22.461,28.320,37.109,-1.465,-20.508
1584600039.548,13.672,34.180,34.180,-45.898,24.414
1584600039.552,51.758,28.809,30.273,29.297,82.031
1584600039.556,58.594,16.602,32.227,79.590,76.660
1584600039.560,9.766,12.695,31.738,9.277,-14.648
1584600039.563,-8.301,21.973,32.715,-60.059,-58.105
1584600039.567,34.180,29.297,35.156,-0.977,-24.414
1584600039.571,62.988,27.832,32.227,93.262,40.039
1584600039.575,29.785,20.020,29.297,54.199,59.082
1584600039.579,-6.836,19.531,29.785,-40.039,9.277
1584600039.583,27.344,25.879,27.832,-9.766,-1.465
1584600039.587,64.941,29.297,33.691,82.520,-10.742
1584600039.591,38.574,19.043,34.180,67.383,9.277
1584600039.595,-8.789,9.766,34.180,-30.273,20.508
1584600039.599,0.977,20.508,34.668,-50.781,34.180
1584600039.602,46.875,28.809,21.973,53.711,39.062
1584600039.606,50.293,26.367,27.832,103.027,51.758
1584600039.610,9.277,20.508,35.156,14.648,74.707
1584600039.614,-6.348,12.207,26.855,-53.711,4.395
1584600039.618,36.621,20.996,20.996,20.996,4.395
1584600039.622,62.988,30.762,32.227,108.398,-6.348
1584600039.626,30.762,13.672,38.086,46.875,-46.387
1584600039.630,1.953,10.254,34.180,-43.945,26.855
1584600039.634,23.438,24.902,39.551,1.465,44.434
1584600039.638,46.387,21.973,31.250,92.773,27.832
1584600039.642,28.809,23.438,31.738,64.453,37.598
1584600039.645,-9.766,16.602,33.691,-39.062,8.301
1584600039.649,7.812,18.555,28.809,-32.227,-33.203
1584600039.653,58.594,32.715,30.273,81.543,2.930
1584600039.657,44.434,26.855,31.250,85.449,29.785
1584600039.661,-3.418,21.973,29.785,-18.066,52.246
1584600039.665,4.883,26.855,35.156,-42.480,62.500
1584600039.669,52.246,17.578,23.926,46.875,24.414
1584600039.673,63.477,7.812,16.113,104.004,27.832
1584600039.677,20.996,26.367,33.203,20.508,22.461
1584600039.681,-4.883,27.344,36.133,-60.059,-43.457
1584600039.685,32.715,18.555,28.320,12.695,-25.391
1584600039.688,55.176,23.438,24.902,86.914,20.996
1584600039.692,17.090,20.020,32.227,30.273,15.137
1584600039.696,-15.625,20.020,38.086,-53.223,14.160
1584600039.700,13.672,26.855,40.039,-17.578,81.543
1584600039.704,51.270,26.855,37.109,82.031,128.906
1584600039.708,38.574,22.461,39.062,70.801,45.410
1584600039.712,-8.789,14.160,42.969,-20.020,35.645
1584600039.716,21.973,5.859,46.387,4.395,49.316
1584600039.720,72.266,21.484,43.945,101.074,54.199
1584600039.724,34.180,35.156,28.320,78.613,62.500
1584600039.727,-23.926,27.832,24.414,-36.133,31.738
1584600039.731,-22.461,27.832,32.227,-70.801,35.156
1584600039.735,35.156,36.621,34.180,33.691,-9.766
1584600039.739,52.246,28.809,23.926,89.844,-16.113
1584600039.743,8.789,31.250,28.320,5.371,42.480
1584600039.747,-17.090,49.805,33.691,-63.965,69.824
1584600039.751,9.277,50.293,24.902,-6.836,60.547
1584600039.755,30.762,45.410,17.578,73.242,2.441
1584600039.759,2.930,38.086,15.137,24.902,51.758
1584600039.763,-29.785,33.691,20.020,-67.871,93.750
1584600039.767,6.348,36.621,30.762,-28.809,48.340
1584600039.770,41.504,39.062,31.738,60.059,20.996
1584600039.774,20.020,38.574,24.414,43.457,-1.953
1584600039.778,-15.137,36.133,21.973,-56.641,13.672
1584600039.782,-3.906,35.156,19.043,-72.266,18.555
1584600039.786,43.945,37.109,24.902,39.062,22.461
1584600039.790,48.340,38.574,31.250,78.125,13.672
1584600039.794,4.395,34.180,30.273,-13.672,4.395
1584600039.798,-5.859,31.738,30.762,-62.500,56.152
1584600039.802,39.551,36.621,33.691,19.531,76.660
1584600039.806,54.688,37.109,33.203,84.473,30.273
1584600039.810,15.625,34.668,30.273,16.113,21.484
1584600039.813,-4.883,31.250,34.180,-51.270,13.184
1584600039.817,33.203,31.738,35.645,10.254,25.879
1584600039.821,58.594,32.715,35.645,83.984,34.668
1584600039.825,26.367,27.832,35.645,38.086,55.664
1584600039.829,-8.789,24.414,34.180,-48.340,0.000
1584600039.833,21.484,32.227,33.691,-22.949,-1.465
1584600039.837,70.312,39.551,40.039,85.938,50.781
1584600039.841,55.664,40.039,41.504,89.844,36.133
1584600039.845,1.465,36.621,31.738,-14.160,0.488
1584600039.849,-0.977,25.391,33.691,-44.434,-17.578
1584600039.852,44.922,19.531,37.598,52.246,40.039
1584600039.856,56.152,30.273,35.645,99.121,41.992
1584600039.860,20.020,35.645,38.086,12.695,58.105
1584600039.864,10.254,29.297,39.062,-43.945,44.922
1584600039.868,44.922,28.320,39.062,25.391,0.000
1584600039.872,62.988,33.203,45.410,94.727,16.113
1584600039.876,27.344,30.762,40.039,37.109,49.805
1584600039.880,-8.789,32.227,29.785,-47.363,7.324
1584600039.884,22.461,37.598,31.250,-4.395,-8.301
1584600039.888,65.918,34.180,33.203,89.355,39.551
1584600039.892,41.992,34.180,29.297,57.129,44.434
1584600039.895,-7.324,34.180,21.973,-41.016,24.902
1584600039.899,13.672,42.480,30.273,-20.996,23.926
1584600039.903,63.965,49.316,49.316,91.309,42.480
1584600039.907,42.969,37.598,41.016,88.379,24.902
1584600039.911,-11.230,26.367,26.367,-26.855,11.230
1584600039.915,3.906,34.668,36.133,-42.480,71.289
1584600039.919,53.223,41.992,39.551,57.129,49.316
1584600039.923,52.734,35.156,28.809,97.656,32.227
1584600039.927,13.184,28.320,31.738,10.254,20.508
1584600039.931,-2.441,32.715,39.062,-52.734,42.480
1584600039.935,30.273,34.180,37.109,20.996,62.500
1584600039.938,52.734,35.156,35.645,92.773,6.348
1584600039.942,23.926,38.574,31.738,34.180,-2.930
1584600039.946,-5.371,37.109,26.367,-52.734,0.488
1584600039.950,30.762,35.156,28.809,-3.418,17.090
1584600039.954,56.641,34.180,31.250,95.215,-4.395
1584600039.958,25.391,29.785,27.832,65.918,22.461
1584600039.962,-16.113,30.762,22.461,-42.480,41.992
1584600039.966,-4.395,35.156,24.902,-43.457,41.992
1584600039.970,47.852,35.645,35.156,69.824,54.688
1584600039.974,48.828,41.016,40.527,86.426,25.391
1584600039.977,-3.906,36.133,33.691,-20.020,3.418
1584600039.981,-9.766,26.855,22.949,-53.711,-16.113
1584600039.985,52.246,35.645,18.555,56.152,-23.926
1584600039.989,85.938,43.945,27.832,135.742,43.945
1584600039.993,32.227,32.715,32.715,41.992,47.852
1584600039.997,-20.996,24.414,29.297,-60.547,-32.227
1584600040.001,14.648,28.809,34.668,1.953,-52.246
1584600040.005,48.340,31.250,38.086,88.379,16.602
1584600040.009,20.508,24.414,37.598,50.293,84.961
1584600040.013,-9.277,20.508,39.551,-34.180,3.906
1584600040.017,-1.953,20.996,39.062,-23.438,-20.020
1584600040.020,46.875,26.855,43.945,79.102,41.504
1584600040.024,49.316,31.738,47.852,92.285,-20.996
1584600040.028,-10.742,27.832,40.527,-8.789,-4.395
1584600040.032,0.977,25.391,34.180,-27.832,18.555
1584600040.036,46.387,30.762,32.227,70.312,6.348
1584600040.040,37.598,27.344,30.762,100.098,34.668
1584600040.044,1.953,20.508,32.227,10.254,59.570
1584600040.048,12.207,26.855,32.715,-37.598,45.898
1584600040.052,67.383,25.391,34.668,52.734,27.344
1584600040.056,73.730,22.461,29.785,120.605,67.871
1584600040.060,26.855,24.902,20.996,44.434,25.391
1584600040.063,6.836,27.344,27.344,-35.645,23.926
1584600040.067,50.293,38.574,44.434,25.879,38.086
1584600040.071,84.961,52.246,45.898,121.582,28.320
1584600040.075,49.316,41.992,41.992,76.172,28.809
1584600040.079,-10.254,18.555,32.227,-42.480,-1.465
1584600040.083,7.324,13.672,27.344,-30.762,-16.113
1584600040.087,62.500,16.602,35.645,82.031,-5.859
1584600040.091,52.734,18.555,38.086,87.402,-3.418
1584600040.095,18.066,31.738,34.668,-1.465,9.277
1584600040.099,33.203,31.738,46.875,-9.766,54.688
1584600040.102,67.871,22.949,47.852,83.496,69.824
1584600040.106,59.082,34.180,42.480,103.516,33.203
1584600040.110,2.930,23.438,33.691,-7.812,1.953
1584600040.114,-3.418,21.973,22.949,-54.688,19.043
1584600040.118,55.664,21.484,31.250,39.551,7.812
1584600040.122,67.871,11.230,39.062,105.957,-22.949
1584600040.126,46.387,43.457,47.852,67.871,27.832
1584600040.130,26.855,45.410,38.574,1.953,57.617
1584600040.134,26.855,18.066,24.902,9.277,85.449
1584600040.138,46.387,10.742,31.250,75.684,69.336
1584600040.142,29.785,15.137,32.715,55.176,23.438
1584600040.145,-5.859,4.883,37.109,-36.133,25.879
1584600040.149,22.461,13.672,48.340,-24.414,59.570
1584600040.153,76.660,28.320,49.805,86.426,35.156
1584600040.157,65.918,39.551,33.203,101.074,59.570
1584600040.161,22.461,47.363,25.879,6.836,97.168
1584600040.165,12.207,35.645,33.203,-37.109,39.551
1584600040.169,69.824,43.945,56.641,68.359,11.719
1584600040.173,83.496,26.855,69.824,136.719,-2.441
1584600040.177,50.293,16.113,58.105,67.383,2.441
1584600040.181,39.551,34.180,40.527,-6.836,24.414
1584600040.185,33.203,38.574,16.602,9.277,21.973
1584600040.188,56.152,37.598,21.973,84.961,7.324
1584600040.192,35.156,45.410,34.668,45.410,10.254
1584600040.196,-13.672,51.270,26.855,-62.988,25.879
1584600040.200,7.324,50.293,10.742,-45.410,40.039
1584600040.204,32.227,44.922,3.418,45.410,43.457
1584600040.208,10.254,34.180,9.277,34.668,33.203
1584600040.212,-29.785,31.250,5.371,-63.965,47.852
1584600040.216,-6.348,38.086,-0.488,-73.730,85.938
1584600040.220,49.805,47.852,10.742,43.457,79.590
1584600040.224,55.664,64.453,21.973,69.824,13.184
1584600040.227,4.883,64.941,12.695,-30.762,6.348
1584600040.231,-22.461,60.059,-11.230,-84.473,-11.719
1584600040.235,20.020,64.453,-16.602,-14.160,-18.066
1584600040.239,29.785,52.734,-12.207,39.062,21.973
1584600040.243,-3.906,43.457,-2.930,-33.691,13.184
1584600040.247,-8.789,53.223,7.324,-82.520,4.395
1584600040.251,38.574,58.594,7.324,-4.883,48.340
1584600040.255,57.129,51.270,-3.906,72.266,79.590
1584600040.259,18.066,42.969,-6.836,19.043,56.641
1584600040.263,-13.184,39.062,-3.418,-73.242,13.672
1584600040.267,17.090,41.992,-0.977,-35.645,24.414
1584600040.270,59.570,44.434,6.836,75.684,-8.789
1584600040.274,34.180,34.668,7.812,61.523,-52.734
1584600040.278,-7.324,35.645,0.977,-46.875,-21.973
1584600040.282,21.484,40.527,8.789,-46.875,-21.484
1584600040.286,65.918,39.062,14.160,58.105,-11.230
1584600040.290,51.758,36.621,9.277,80.566,42.480
1584600040.294,8.789,26.367,8.789,-16.602,59.570
1584600040.298,10.742,30.762,11.230,-60.547,39.062
1584600040.302,62.012,38.574,25.391,41.504,29.297
1584600040.306,66.895,34.668,24.902,105.469,55.176
1584600040.310,21.973,36.621,15.137,25.391,0.000
1584600040.313,4.883,37.598,10.254,-55.176,-34.668
1584600040.317,42.480,34.180,11.230,10.254,41.016
1584600040.321,68.359,43.457,20.508,110.352,71.777
1584600040.325,33.203,32.715,15.137,59.082,29.785
1584600040.329,-9.766,14.648,9.277,-43.945,39.062
1584600040.333,11.719,25.879,18.066,-21.484,84.473
1584600040.337,59.570,35.156,29.297,92.285,49.805
1584600040.341,48.828,21.973,30.273,92.773,29.297
1584600040.345,0.488,14.648,16.602,-20.996,11.719
1584600040.349,11.719,27.344,16.602,-37.109,35.645
1584600040.352,62.988,28.320,33.203,72.754,64.453
1584600040.356,51.758,27.344,28.320,103.027,19.043
1584600040.360,2.930,25.391,26.367,7.324,15.625
1584600040.364,0.977,22.461,31.250,-44.434,31.250
1584600040.368,35.156,30.762,24.414,30.273,25.879
1584600040.372,54.199,22.949,20.996,102.539,75.684
1584600040.376,21.973,8.789,20.996,33.691,68.359
1584600040.380,-5.371,17.578,16.602,-53.711,25.391
1584600040.384,22.949,25.879,10.742,-5.859,58.105
1584600040.388,51.758,30.762,20.020,96.191,42.480
1584600040.392,36.133,39.062,32.715,62.012,43.945
1584600040.395,0.977,29.785,29.297,-37.109,54.688
1584600040.399,11.230,26.367,18.555,-29.297,-11.230
1584600040.403,44.922,30.762,18.066,67.871,-6.836
1584600040.407,31.738,29.297,17.090,80.566,51.758
1584600040.411,-9.277,24.902,13.184,-22.949,53.223
1584600040.415,0.000,26.855,22.949,-48.828,47.852
1584600040.419,43.457,34.180,28.320,47.363,37.598
1584600040.423,64.941,49.805,36.133,109.375,19.531
1584600040.427,26.855,34.180,32.227,28.809,9.766
1584600040.431,-1.465,20.020,24.902,-48.828,32.227
1584600040.435,29.785,37.598,31.738,22.461,46.387
1584600040.438,49.316,37.109,30.273,92.773,-15.625
1584600040.442,29.785,43.457,32.227,48.828,8.301
1584600040.446,4.883,41.992,36.621,-20.996,49.805
1584600040.450,29.297,27.832,37.598,5.859,47.852
1584600040.454,69.824,39.551,41.992,103.027,9.766
1584600040.458,40.039,42.969,38.574,73.242,3.418
1584600040.462,-14.160,32.227,27.344,-42.969,14.160
1584600040.466,-6.836,28.809,18.555,-44.434,22.461
1584600040.470,33.203,24.902,14.160,51.758,61.523
1584600040.474,36.621,21.484,18.555,80.566,39.551
1584600040.477,-6.348,17.090,28.809,-4.883,-14.160
1584600040.481,-16.113,18.555,23.926,-54.199,-23.926
1584600040.485,35.645,37.109,24.902,41.992,41.504
1584600040.489,59.570,38.086,33.203,112.305,63.965
1584600040.493,24.414,41.504,35.645,37.109,32.227
1584600040.497,-0.488,45.410,37.109,-34.180,47.852
1584600040.501,33.203,38.574,40.039,27.344,12.207
1584600040.505,59.570,37.109,39.062,108.887,53.223
1584600040.509,24.902,21.973,22.461,44.434,61.523
1584600040.513,-19.043,11.719,22.461,-56.152,0.977
1584600040.517,5.371,24.414,32.227,-15.625,13.672
1584600040.520,37.109,30.762,33.203,74.219,35.156
1584600040.524,12.207,30.273,32.227,54.688,71.777
1584600040.528,-11.719,35.645,36.133,-31.738,25.879
1584600040.532,9.277,42.969,32.715,-44.434,-33.691
1584600040.536,56.641,43.945,34.668,62.988,-20.996
1584600040.540,53.711,36.133,46.387,104.004,2.441
1584600040.544,-8.789,20.020,28.320,-15.625,-49.316
1584600040.548,-16.602,14.160,14.648,-69.824,15.625
1584600040.552,34.180,20.996,23.926,41.016,43.457
1584600040.556,46.875,22.949,28.320,104.004,18.555
1584600040.560,8.301,28.320,29.785,19.043,23.926
1584600040.563,-10.254,26.855,30.762,-52.246,8.789
1584600040.567,34.668,30.762,33.691,11.230,62.988
1584600040.571,63.477,31.738,29.785,98.145,53.711
1584600040.575,30.273,27.344,19.531,47.852,-12.695
1584600040.579,-13.184,23.438,19.531,-48.828,-36.133
1584600040.583,15.137,28.809,22.949,-22.949,-15.625
1584600040.587,62.988,35.645,30.273,85.449,-3.906
1584600040.591,43.457,32.227,32.715,86.914,21.484
1584600040.595,-2.441,28.320,27.832,-13.672,70.801
1584600040.599,1.953,24.414,32.715,-32.715,17.578
1584600040.602,52.734,26.855,39.551,69.336,20.020
1584600040.606,61.523,29.785,40.039,104.004,30.762
1584600040.610,23.438,33.691,39.062,13.672,39.551
1584600040.614,6.836,31.250,31.250,-41.016,99.609
1584600040.618,48.828,37.598,28.320,35.645,57.129
1584600040.622,76.172,38.086,28.809,105.469,32.227
1584600040.626,32.227,22.461,30.273,46.387,82.031
1584600040.630,-0.977,27.344,32.227,-39.551,79.102
1584600040.634,28.809,28.809,20.508,-3.906,72.754
1584600040.638,56.152,27.832,25.879,91.309,80.078
1584600040.642,31.250,27.832,40.039,64.941,81.543
1584600040.645,-10.254,21.973,38.574,-41.504,41.504
1584600040.649,16.113,28.809,36.621,-31.250,-9.277
1584600040.653,58.105,39.062,35.645,73.242,-18.555
1584600040.657,40.527,33.203,33.203,78.125,-22.949
1584600040.661,0.488,23.438,25.391,-18.555,-16.602
1584600040.665,0.977,30.273,24.902,-41.992,38.574
1584600040.669,46.875,35.645,30.762,58.594,59.082
1584600040.673,57.617,25.391,36.133,104.980,31.738
1584600040.677,11.719,16.113,33.203,9.277,41.016
1584600040.681,-3.906,21.484,27.344,-51.758,4.883
1584600040.685,42.480,28.809,25.879,35.156,47.852
1584600040.688,75.684,45.410,27.344,124.512,75.195
1584600040.692,40.039,51.270,23.438,64.941,12.695
1584600040.696,-5.859,29.785,22.461,-43.457,14.648
1584600040.700,11.719,20.508,24.902,-17.090,-36.133
1584600040.704,50.781,27.344,26.367,91.797,-19.531
1584600040.708,27.344,24.414,27.344,67.383,6.348
1584600040.712,-16.602,24.902,19.043,-43.457,1.953
1584600040.716,27.832,32.715,10.254,-13.672,23.438
1584600040.720,86.914,31.250,25.391,95.703,1.953
1584600040.724,48.340,24.902,30.273,79.102,13.672
1584600040.727,-21.484,23.926,21.484,-34.180,36.621
1584600040.731,-15.137,23.926,27.832,-69.824,64.453
1584600040.735,29.785,23.438,37.598,30.762,68.359
1584600040.739,31.738,22.461,40.527,89.844,69.336
1584600040.743,-4.395,17.090,41.016,15.625,45.898
1584600040.747,-18.066,15.137,44.434,-45.898,18.555
1584600040.751,16.602,18.555,47.363,18.066,18.066
1584600040.755,37.109,23.438,46.875,101.562,16.602
1584600040.759,3.418,16.602,42.480,41.504,-10.254
1584600040.763,-35.645,9.766,41.016,-55.664,-47.363
1584600040.767,-3.418,18.555,46.387,-13.672,-38.086
1584600040.770,55.176,27.832,53.223,101.562,-19.531
1584600040.774,41.016,16.602,49.316,89.355,15.625
1584600040.778,-14.160,5.859,41.504,-20.996,18.066
1584600040.782,9.277,23.926,41.992,-29.297,-6.836
1584600040.786,49.316,22.949,40.527,71.289,0.488
1584600040.790,27.344,12.695,43.945,96.191,13.672
1584600040.794,-12.207,20.508,46.875,-2.930,30.762
1584600040.798,-25.391,14.648,29.785,-50.781,55.664
1584600040.802,19.531,16.113,32.715,50.293,24.902
1584600040.806,38.574,22.949,43.945,106.934,13.672
1584600040.810,-7.324,17.578,37.109,16.113,16.113
1584600040.813,-19.043,26.855,41.504,-47.852,31.250
1584600040.817,27.344,31.738,44.434,17.090,76.172
1584600040.821,50.293,20.508,34.668,98.145,-3.906
1584600040.825,21.484,20.996,28.809,51.758,-29.785
1584600040.829,-16.602,22.949,24.414,-42.480,39.062
1584600040.833,10.254,29.297,29.297,-9.766,17.090
1584600040.837,58.105,33.203,28.320,100.098,-9.766
1584600040.841,39.551,23.438,14.648,86.426,30.273
1584600040.845,-4.883,28.809,20.020,-14.160,-12.695
1584600040.849,4.395,41.992,35.156,-23.438,-28.320
1584600040.852,41.504,37.598,37.598,64.941,17.090
1584600040.856,35.156,26.367,28.320,89.844,-11.719
1584600040.860,-9.766,21.484,17.090,-1.465,-53.711
1584600040.864,-12.207,25.391,24.414,-48.828,52.246
1584600040.868,36.133,28.809,34.180,44.434,94.238
1584600040.872,47.363,33.203,28.320,107.910,44.922
1584600040.876,5.859,27.832,20.020,27.344,10.742
1584600040.880,-5.859,26.367,29.785,-46.387,2.441
1584600040.884,33.203,30.762,38.574,17.578,39.551
1584600040.888,47.363,23.438,26.367,102.539,45.410
1584600040.892,13.184,15.625,19.043,57.129,94.238
1584600040.895,-13.672,18.555,22.949,-33.203,89.844
1584600040.899,19.531,23.926,24.414,-2.930,50.781
1584600040.903,64.453,35.156,39.062,102.539,47.852
1584600040.907,53.223,43.945,37.598,110.352,9.277
1584600040.911,0.000,20.996,15.137,-12.207,-8.789
1584600040.915,-13.672,11.719,16.602,-61.523,16.602
1584600040.919,27.344,23.438,28.320,46.875,27.832
1584600040.923,28.320,25.391,29.785,92.285,0.000
1584600040.927,-14.160,17.090,21.484,1.953,14.160
1584600040.931,-19.531,20.508,21.973,-52.246,25.391
1584600040.935,30.273,32.715,28.809,34.180,37.598
1584600040.938,56.641,30.762,35.156,121.094,7.812
1584600040.942,20.508,18.066,26.367,53.223,2.930
1584600040.946,-10.742,14.160,24.414,-45.410,-8.789
1584600040.950,33.203,22.461,29.785,5.371,-6.348
1584600040.954,65.918,25.879,22.461,108.887,50.293
1584600040.958,28.320,27.344,14.648,69.336,36.621
1584600040.962,-16.113,26.367,14.160,-47.852,47.852
1584600040.966,13.672,31.738,30.273,-29.297,63.965
1584600040.970,54.688,33.691,34.668,79.102,6.836
1584600040.974,34.180,31.250,29.297,90.820,9.277
1584600040.977,-8.301,25.391,27.344,-8.301,48.828
1584600040.981,-17.578,21.973,20.020,-56.641,48.340
1584600040.985,26.367,25.391,20.996,38.086,52.246
1584600040.989,36.133,15.137,18.555,99.121,68.359
1584600040.993,4.395,19.531,20.020,14.648,112.793
1584600040.997,-10.742,30.273,29.297,-51.270,107.910
1584600041.001,29.297,31.250,33.691,29.785,31.250
1584600041.005,49.805,30.273,23.438,93.262,20.020
1584600041.009,8.789,24.414,18.066,25.879,67.871
1584600041.013,-18.066,24.414,27.344,-49.805,44.434
1584600041.017,19.531,28.320,35.156,-5.859,42.969
1584600041.020,63.477,32.227,34.668,93.750,46.387
1584600041.024,38.086,27.832,26.855,77.148,14.648
1584600041.028,-3.418,23.438,35.645,-21.973,28.320
1584600041.032,14.648,31.250,42.480,-25.391,38.086
1584600041.036,47.363,34.180,30.762,66.406,23.438
1584600041.040,41.992,28.320,30.762,100.098,14.160
1584600041.044,-5.859,20.508,30.273,-3.418,-22.949
1584600041.048,-4.883,20.508,25.879,-53.223,0.000
1584600041.052,49.316,22.949,30.273,47.852,29.785
1584600041.056,48.340,28.809,30.273,94.238,46.387
1584600041.060,8.301,35.156,27.344,20.508,72.266
1584600041.063,-3.418,31.738,23.926,-40.527,28.809
1584600041.067,37.598,33.691,29.297,20.020,41.504
1584600041.071,62.500,34.668,26.855,102.539,21.484
1584600041.075,22.949,24.414,19.531,53.711,-16.602
1584600041.079,-18.066,20.508,31.250,-47.852,0.488
1584600041.083,10.254,30.762,38.086,-19.043,16.113
1584600041.087,54.688,34.668,39.551,92.773,37.598
1584600041.091,43.945,36.621,43.457,97.656,45.898
1584600041.095,-3.418,31.250,34.668,-10.254,75.684
1584600041.099,-2.930,23.438,25.879,-46.387,64.453
1584600041.102,43.945,31.250,26.855,53.223,29.297
1584600041.106,37.109,30.273,28.320,89.355,55.664
1584600041.110,-14.160,20.508,28.809,-8.301,33.203
1584600041.114,-20.996,19.043,24.902,-53.711,7.324
1584600041.118,25.879,22.461,22.949,31.738,64.941
1584600041.122,47.363,28.809,26.367,98.633,90.332
1584600041.126,16.602,30.273,28.809,35.156,21.973
1584600041.130,0.977,27.344,29.297,-47.363,8.301
1584600041.134,26.367,20.996,24.414,5.371,15.625
1584600041.138,47.363,22.461,23.926,100.098,-1.465
1584600041.142,34.668,26.855,29.785,71.289,13.672
1584600041.145,-6.836,21.973,26.367,-24.902,14.160
1584600041.149,1.465,19.531,22.949,-26.855,18.066
1584600041.153,50.781,34.668,28.320,74.219,34.180
1584600041.157,51.270,40.527,33.691,91.309,59.082
1584600041.161,8.789,18.066,29.785,2.441,15.137
1584600041.165,5.859,20.020,30.273,-26.367,-13.184
1584600041.169,38.086,36.133,30.273,53.223,4.883
1584600041.173,37.598,29.785,27.832,87.891,8.301
1584600041.177,-1.465,24.414,18.066,-5.859,21.484
1584600041.181,-16.602,23.926,13.672,-65.430,46.875
1584600041.185,24.414,27.832,24.414,12.207,32.227
1584600041.188,52.734,33.203,31.250,80.566,-37.598
1584600041.192,20.020,25.391,24.902,26.855,7.324
1584600041.196,-10.254,25.879,29.297,-46.387,30.762
1584600041.200,20.508,30.273,36.133,0.488,-8.301
1584600041.204,49.805,23.926,23.438,83.984,12.695
1584600041.208,21.484,25.879,21.484,53.223,17.090
1584600041.212,-13.672,31.250,28.809,-34.180,14.648
1584600041.216,15.625,32.715,35.645,-24.902,86.914
1584600041.220,61.035,36.621,42.480,86.914,101.074
1584600041.224,41.992,28.320,28.809,97.656,41.016
1584600041.227,-5.859,15.625,21.484,-12.695,47.852
1584600041.231,2.441,16.113,27.832,-43.945,55.176
1584600041.235,48.828,31.250,31.250,57.617,3.418
1584600041.239,45.410,35.156,25.879,104.492,20.020
1584600041.243,11.719,27.832,26.855,19.531,37.109
1584600041.247,-6.836,27.832,29.297,-50.293,18.555
1584600041.251,18.555,30.762,28.809,19.043,47.363
1584600041.255,45.410,29.785,24.902,104.004,54.688
1584600041.259,20.020,26.855,25.879,43.945,47.852
1584600041.263,-3.418,25.879,37.109,-44.922,38.086
1584600041.267,20.996,27.832,32.715,-1.465,-9.277
1584600041.270,51.270,30.273,26.855,94.238,-22.949
1584600041.274,39.062,37.598,40.527,75.195,28.320
1584600041.278,0.488,32.227,40.527,-33.691,20.508
1584600041.282,0.488,19.531,25.391,-31.250,-2.441
1584600041.286,45.898,37.109,28.809,81.055,22.461
1584600041.290,47.363,39.062,27.832,92.285,-14.648
1584600041.294,-0.977,26.367,14.160,-12.695,14.160
1584600041.298,14.160,45.898,22.461,-33.203,59.570
1584600041.302,63.477,44.434,30.273,66.406,5.859
1584600041.306,43.945,17.578,16.113,87.891,-1.465
1584600041.310,0.000,17.090,25.879,2.441,10.742
1584600041.313,-14.160,27.344,37.109,-54.199,42.969
1584600041.317,23.438,31.738,31.738,11.230,31.250
1584600041.321,49.316,34.180,20.996,86.914,41.504
1584600041.325,16.113,29.297,20.020,36.621,65.918
1584600041.329,-10.742,30.762,29.785,-32.227,-7.324
1584600041.333,22.949,35.156,29.297,-8.789,-0.977
1584600041.337,60.547,33.203,27.832,75.195,44.434
1584600041.341,43.457,28.809,28.320,70.312,31.250
1584600041.345,-6.348,25.879,24.902,-27.344,-9.766
1584600041.349,17.578,30.273,23.926,-31.250,-14.160
1584600041.352,67.383,41.504,27.344,67.871,41.504
1584600041.356,46.875,43.457,33.203,100.098,66.895
1584600041.360,-3.418,32.227,32.227,-0.488,63.477
1584600041.364,-15.625,23.438,20.996,-62.500,22.949
1584600041.368,31.738,17.090,14.160,18.066,22.949
1584600041.372,51.758,22.461,21.484,99.121,32.227
1584600041.376,20.508,29.297,31.250,45.898,58.594
1584600041.380,-3.906,18.066,32.715,-43.457,35.156
1584600041.384,26.367,31.738,34.668,15.625,32.227
1584600041.388,55.664,51.270,36.133,109.863,42.480
1584600041.392,22.949,31.738,30.273,52.734,14.648
1584600041.395,-20.996,18.066,22.461,-47.363,24.902
1584600041.399,3.906,22.461,23.438,-20.508,61.523
1584600041.403,51.758,27.832,27.832,91.309,47.852
1584600041.407,40.527,28.809,28.809,85.938,72.754
1584600041.411,-6.836,26.855,23.438,-25.879,78.125
1584600041.415,-0.977,26.855,22.461,-38.086,55.664
1584600041.419,47.363,26.367,34.668,66.895,25.391
1584600041.423,50.781,28.809,37.109,103.027,0.000
1584600041.427,3.906,26.367,26.855,0.000,23.926
1584600041.431,0.488,30.273,27.344,-52.734,30.273
1584600041.435,41.504,30.273,29.785,41.016,8.789
1584600041.438,58.105,24.902,25.879,107.422,28.809
1584600041.442,24.902,29.297,22.461,28.809,14.160
1584600041.446,-20.996,23.926,20.996,-51.758,1.953
1584600041.450,14.648,22.461,30.273,-3.418,36.133
1584600041.454,67.383,32.715,37.598,88.379,15.625
1584600041.458,34.668,29.785,27.832,63.965,2.441
1584600041.462,-21.484,22.461,22.461,-41.992,27.344
1584600041.466,0.977,26.367,28.320,-33.691,21.484
1584600041.470,51.270,37.598,34.668,71.289,13.672
1584600041.474,50.293,41.504,37.598,85.938,36.133
1584600041.477,0.977,36.621,27.832,-15.625,19.531
1584600041.481,1.953,25.391,22.949,-41.016,-1.953
1584600041.485,54.688,29.785,32.227,62.012,50.293
1584600041.489,57.617,38.086,32.715,106.445,91.797
1584600041.493,11.719,25.879,30.273,31.250,58.105
1584600041.497,-4.395,31.250,35.156,-29.297,26.367
1584600041.501,34.180,32.715,20.996,22.949,61.523
1584600041.505,48.828,23.438,14.648,94.238,68.848
1584600041.509,6.348,24.902,26.367,33.691,6.836
1584600041.513,-20.508,20.996,29.785,-56.152,-52.246
1584600041.517,20.996,30.273,37.109,-8.789,-39.551
1584600041.520,56.152,37.598,37.598,91.797,26.367
1584600041.524,27.344,22.949,23.926,62.988,19.043
1584600041.528,-9.277,26.367,24.414,-29.297,66.406
1584600041.532,10.742,34.180,30.762,-23.438,70.801
1584600041.536,58.594,43.457,32.715,79.590,22.461
1584600041.540,52.246,37.598,43.457,104.492,20.508
1584600041.544,0.000,16.602,41.992,0.977,-20.020
1584600041.548,-1.953,28.809,38.574,-44.922,21.484
1584600041.552,40.527,39.062,35.645,48.340,39.551
1584600041.556,41.504,27.832,24.414,95.215,64.453
1584600041.560,5.859,21.973,27.832,12.695,45.410
1584600041.563,-8.301,20.996,28.809,-58.594,1.465
1584600041.567,24.414,18.066,22.461,2.930,13.672
1584600041.571,55.664,27.344,25.879,94.238,11.230
1584600041.575,30.762,27.344,29.297,56.152,23.926
1584600041.579,-11.719,26.855,32.227,-34.668,-19.043
1584600041.583,15.625,37.109,31.250,-11.719,-6.348
1584600041.587,53.223,29.785,16.113,81.543,13.672
1584600041.591,36.621,27.344,16.602,77.148,23.926
1584600041.595,-3.906,20.020,27.832,-21.484,33.691
1584600041.599,6.348,20.508,29.297,-21.484,5.371
1584600041.602,51.758,39.062,35.156,74.707,-7.324
1584600041.606,49.316,37.598,32.715,88.379,19.531
1584600041.610,12.207,34.668,24.414,1.465,72.266
1584600041.614,6.348,39.551,27.832,-43.457,-13.672
1584600041.618,47.363,43.457,35.156,41.016,-49.805
1584600041.622,65.918,38.574,32.227,106.445,47.852
1584600041.626,35.645,12.207,30.762,59.570,28.320
1584600041.630,26.855,17.578,41.504,-9.766,-3.906
1584600041.634,55.176,42.969,41.016,23.926,32.227
1584600041.638,57.617,40.039,34.668,90.332,-2.441
1584600041.642,29.297,36.133,31.250,43.945,28.320
1584600041.645,-1.465,37.109,26.855,-40.039,64.453
1584600041.649,20.020,32.227,20.508,-25.879,8.789
1584600041.653,63.965,40.527,21.484,66.895,30.273
1584600041.657,47.363,45.898,20.996,70.312,60.547
1584600041.661,5.371,36.133,11.719,-23.438,0.000
1584600041.665,10.254,38.574,10.742,-40.039,14.648
1584600041.669,54.199,44.922,15.625,49.805,25.879
1584600041.673,62.988,40.039,20.508,97.656,-5.371
1584600041.677,18.555,21.484,22.461,14.648,6.836
1584600041.681,4.395,25.879,27.344,-42.969,11.719
1584600041.685,53.711,42.480,26.855,33.203,60.547
1584600041.688,69.824,37.598,18.066,98.145,53.223
1584600041.692,17.090,31.250,18.066,33.203,13.184
1584600041.696,-11.230,25.391,17.578,-47.363,73.730
1584600041.700,30.762,26.367,18.066,-6.348,88.379
1584600041.704,65.430,36.133,20.508,89.355,78.125
1584600041.708,45.898,43.457,22.949,76.660,14.648
1584600041.712,9.766,37.109,34.180,-22.461,-10.254
1584600041.716,23.926,28.320,34.668,-17.578,70.312
1584600041.720,63.477,30.762,25.391,87.891,12.695
1584600041.724,52.734,31.738,21.484,86.914,-9.277
1584600041.727,2.930,30.762,20.020,-6.348,25.391
1584600041.731,8.301,31.250,19.043,-36.621,32.715
1584600041.735,56.641,32.227,20.996,53.223,57.129
1584600041.739,62.012,32.227,23.438,105.957,49.805
1584600041.743,30.762,22.949,28.809,29.297,58.105
1584600041.747,16.113,27.832,34.668,-31.738,68.359
1584600041.751,37.109,40.039,24.902,27.344,57.617
1584600041.755,52.246,36.621,20.996,98.633,52.734
1584600041.759,27.832,29.297,27.344,40.039,107.422
1584600041.763,-0.488,32.715,24.902,-28.320,82.031
1584600041.767,21.484,41.992,27.344,8.301,11.230
1584600041.770,63.965,43.457,30.273,91.797,-6.836
1584600041.774,42.480,36.621,24.902,73.242,60.547
1584600041.778,3.906,33.691,26.855,-30.273,59.570
1584600041.782,13.672,30.273,25.391,-30.762,31.738
1584600041.786,40.039,31.738,21.973,67.383,1.465
1584600041.790,31.738,40.039,20.020,78.125,4.883
1584600041.794,-12.207,34.180,14.648,-27.832,20.508
1584600041.798,-15.137,30.273,16.113,-63.477,21.484
1584600041.802,39.062,37.598,20.996,37.109,44.922
1584600041.806,59.082,38.086,30.273,101.074,60.059
1584600041.810,18.066,30.762,32.227,22.949,35.645
1584600041.813,-17.090,25.391,19.531,-61.523,-21.484
1584600041.817,15.625,30.762,15.137,-3.418,-18.555
1584600041.821,42.480,29.785,20.508,90.332,-0.977
1584600041.825,11.230,28.320,21.973,41.504,9.277
1584600041.829,-23.926,25.391,19.531,-60.059,-0.977
1584600041.833,2.930,23.438,22.949,-19.043,41.016
1584600041.837,52.734,36.621,32.715,97.168,98.633
1584600041.841,37.598,34.668,27.832,88.867,83.008
1584600041.845,-8.301,23.438,11.719,-29.297,67.383
1584600041.849,4.883,30.762,19.043,-41.992,76.660
1584600041.852,50.293,36.621,34.180,70.312,-10.742
1584600041.856,46.387,30.273,26.855,89.844,-46.387
1584600041.860,9.277,35.156,27.344,-2.930,17.578
1584600041.864,8.789,41.992,37.109,-33.691,41.992
1584600041.868,53.223,39.551,27.832,61.523,13.672
1584600041.872,64.941,35.645,24.414,120.117,33.203
1584600041.876,14.160,21.484,27.344,35.156,44.922
1584600041.880,-24.902,16.113,23.926,-57.129,48.340
1584600041.884,18.555,25.879,20.508,0.000,27.344
1584600041.888,58.594,30.273,22.949,91.797,20.020
1584600041.892,23.438,26.367,18.555,46.875,64.941
1584600041.895,2.930,28.320,21.484,-42.480,75.195
1584600041.899,34.668,32.715,29.785,-9.766,32.227
1584600041.903,65.430,30.762,36.621,99.121,9.277
1584600041.907,42.480,26.855,27.344,86.914,-13.672
1584600041.911,-7.812,22.461,13.672,-32.715,-30.273
1584600041.915,-0.488,28.320,21.484,-42.969,-1.465
1584600041.919,45.898,36.621,26.855,67.871,31.738
1584600041.923,54.688,37.109,26.855,99.609,53.223
1584600041.927,11.230,29.297,23.438,4.883,-7.812
1584600041.931,-10.254,23.438,19.531,-49.805,-8.789
1584600041.935,36.621,33.203,22.461,35.645,-30.762
1584600041.938,51.758,32.715,18.066,102.051,-44.434
1584600041.942,7.324,25.391,13.672,26.855,7.812
1584600041.946,-15.137,26.367,20.508,-54.688,52.246
1584600041.950,19.043,36.133,20.020,-6.348,51.758
1584600041.954,59.570,46.387,30.273,97.656,40.527
1584600041.958,31.250,37.109,36.621,75.195,24.414
1584600041.962,-17.578,26.855,28.320,-31.738,31.738
1584600041.966,7.812,30.273,34.668,-24.414,36.133
1584600041.970,54.199,28.809,32.227,84.473,15.137
1584600041.974,37.598,22.461,20.508,86.914,25.391
1584600041.977,-9.766,22.461,16.602,-23.926,-24.414
1584600041.981,4.395,26.367,18.555,-49.805,-34.180
1584600041.985,46.387,31.738,25.879,48.340,-7.324
1584600041.989,41.016,32.227,23.926,95.703,1.465
1584600041.993,7.324,32.227,27.832,18.066,7.324
1584600041.997,-9.277,31.738,29.297,-37.109,-15.137
1584600042.001,27.344,30.273,22.461,28.809,24.902
1584600042.005,62.012,33.691,31.250,107.910,41.016
1584600042.009,23.438,22.461,32.715,49.316,17.090
1584600042.013,-11.719,18.066,14.160,-57.617,18.066
1584600042.017,26.367,41.016,17.578,-14.648,21.973
1584600042.020,59.570,45.898,34.668,90.820,37.109
1584600042.024,33.203,24.902,32.715,59.570,22.461
1584600042.028,-7.324,16.113,31.738,-39.551,-16.602
1584600042.032,2.441,22.461,24.902,-37.598,17.578
1584600042.036,56.641,35.156,31.738,67.871,70.801
1584600042.040,47.852,33.203,40.527,89.355,62.500
1584600042.044,-11.719,22.949,28.320,-19.531,74.707
1584600042.048,-4.395,37.598,35.645,-42.969,47.363
1584600042.052,41.504,41.504,38.574,54.688,17.578
1584600042.056,45.410,27.344,22.461,98.145,47.363
1584600042.060,11.230,21.973,20.508,15.137,32.227
1584600042.063,-8.301,20.996,29.785,-56.152,9.766
1584600042.067,22.949,25.879,26.855,9.277,-18.066
1584600042.071,44.922,28.809,21.484,89.355,-25.879
1584600042.075,25.391,23.926,30.762,47.852,-47.363
1584600042.079,1.953,20.508,36.133,-24.414,-39.551
1584600042.083,23.926,30.273,30.762,-15.137,-30.762
1584600042.087,43.945,38.086,24.414,67.871,11.719
1584600042.091,24.902,29.785,19.043,64.453,83.984
1584600042.095,-12.207,18.555,19.043,-26.855,29.785
1584600042.099,-6.348,11.719,18.066,-36.133,58.105
1584600042.102,33.691,16.113,20.996,54.199,45.410
1584600042.106,33.691,25.391,30.762,81.055,36.133
1584600042.110,0.488,30.273,29.297,0.488,24.902
1584600042.114,-5.371,22.949,25.391,-40.039,-30.273
1584600042.118,37.598,24.414,33.203,36.621,41.504
1584600042.122,53.711,37.598,40.039,95.215,57.617
1584600042.126,7.812,22.461,31.738,20.996,32.227
1584600042.130,-9.766,17.578,25.391,-56.641,28.320
1584600042.134,32.227,35.645,28.809,12.695,35.645
1584600042.138,51.758,30.762,26.367,99.121,8.789
1584600042.142,23.438,20.996,24.414,49.805,12.207
1584600042.145,-3.906,23.438,24.902,-37.598,29.785
1584600042.149,24.902,27.344,24.414,-10.742,37.109
1584600042.153,62.988,26.855,28.320,86.914,6.348
1584600042.157,37.109,24.414,23.926,75.195,7.324
1584600042.161,-4.395,33.691,23.926,-21.973,61.523
1584600042.165,15.137,38.086,21.973,-27.832,13.184
1584600042.169,53.223,29.785,14.160,66.406,-18.555
1584600042.173,48.340,18.555,18.555,96.680,12.207
1584600042.177,5.371,18.555,25.879,3.906,56.641
1584600042.181,-0.977,31.250,30.273,-38.574,49.316
1584600042.185,42.969,37.109,27.344,41.016,16.113
1584600042.188,51.270,30.273,21.484,92.773,21.484
1584600042.192,18.066,29.785,25.391,33.203,36.621
1584600042.196,-5.371,37.109,25.879,-41.504,37.598
1584600042.200,26.367,36.133,25.391,10.254,27.344
1584600042.204,58.594,27.344,24.902,103.516,21.973
1584600042.208,34.180,20.996,29.785,62.012,1.953
1584600042.212,-1.953,24.902,29.297,-36.621,8.789
1584600042.216,8.789,31.738,19.531,-30.273,54.199
1584600042.220,42.969,31.250,20.996,65.430,83.984
1584600042.224,36.133,28.809,28.809,79.102,35.156
1584600042.227,-4.883,26.367,29.785,-16.113,14.648
1584600042.231,-6.348,21.973,26.855,-46.387,79.102
1584600042.235,42.969,24.902,32.227,63.477,83.496
1584600042.239,47.852,24.902,30.273,108.887,62.500
1584600042.243,4.883,20.020,25.879,0.977,33.203
1584600042.247,-8.789,20.020,26.367,-57.129,0.488
1584600042.251,26.855,27.344,34.668,25.391,16.113
1584600042.255,50.293,35.156,38.574,101.562,48.340
1584600042.259,12.207,20.508,29.297,34.668,55.664
1584600042.263,-22.949,11.230,20.508,-57.617,85.449
1584600042.267,20.508,23.926,22.949,-17.090,56.641
1584600042.270,61.523,38.574,30.762,87.891,-3.418
1584600042.274,33.691,31.738,32.715,66.406,4.395
1584600042.278,-11.230,15.137,24.414,-39.062,15.137
1584600042.282,13.672,30.273,17.090,-25.391,19.531
1584600042.286,63.477,38.574,28.320,80.078,60.547
1584600042.290,42.480,25.879,24.902,83.984,71.289
1584600042.294,2.930,23.438,21.973,-19.531,20.508
1584600042.298,3.418,22.949,27.832,-44.434,33.691
1584600042.302,43.457,29.297,30.273,54.688,19.043
1584600042.306,51.270,31.738,31.738,101.074,-19.531
1584600042.310,9.277,26.855,27.832,26.367,-19.043
1584600042.313,-0.488,29.785,24.414,-39.062,-41.016
1584600042.317,39.062,33.691,25.879,11.719,21.484
1584600042.321,60.059,35.645,34.180,104.492,45.410
1584600042.325,29.297,31.738,32.715,62.012,5.859
1584600042.329,8.301,30.273,26.855,-29.785,-22.461
1584600042.333,36.621,37.109,30.762,11.719,-20.508
1584600042.337,56.152,39.062,35.156,99.121,38.086
1584600042.341,24.902,32.715,31.250,60.547,14.160
1584600042.345,-7.324,33.203,29.785,-35.645,17.090
1584600042.349,20.020,42.480,34.668,-21.484,62.988
1584600042.352,68.848,38.086,34.668,83.984,37.598
1584600042.356,59.082,26.855,28.320,98.633,28.320
1584600042.360,8.301,26.367,29.785,7.812,83.008
1584600042.364,4.883,28.809,30.762,-30.273,47.852
1584600042.368,48.828,29.297,23.438,49.316,20.508
1584600042.372,59.082,30.762,20.020,109.863,33.203
1584600042.376,15.137,27.344,26.855,30.273,38.086
1584600042.380,-2.441,25.391,30.762,-48.828,9.766
1584600042.384,41.992,30.762,33.691,25.879,19.043
1584600042.388,62.012,32.227,23.438,110.840,43.945
1584600042.392,27.832,33.203,18.066,50.781,41.016
1584600042.395,4.883,30.273,30.762,-32.715,107.422
1584600042.399,25.879,29.297,28.809,-3.906,92.773
1584600042.403,56.641,33.691,21.973,81.055,55.176
1584600042.407,50.293,39.062,28.320,79.102,22.949
1584600042.411,-1.953,31.738,20.996,-22.461,4.883
1584600042.415,-1.953,22.461,19.531,-39.062,41.016
1584600042.419,46.875,32.715,28.809,62.988,13.672
1584600042.423,45.410,33.691,26.855,100.098,-17.578
1584600042.427,-1.953,23.438,22.949,-0.488,-18.555
1584600042.431,-11.719,21.973,19.043,-62.500,16.602
1584600042.435,37.598,36.133,26.367,30.762,40.039
1584600042.438,54.199,36.133,30.273,104.004,73.730
1584600042.442,18.555,27.832,27.344,36.133,126.953
1584600042.446,-7.812,29.785,25.391,-42.480,87.402
1584600042.450,23.438,30.273,22.949,6.348,-6.348
1584600042.454,68.359,36.133,28.320,92.773,-8.301
1584600042.458,33.203,28.320,27.344,54.688,23.438
1584600042.462,-15.625,23.926,26.367,-40.527,38.086
1584600042.466,15.625,36.133,30.273,-24.414,28.809
1584600042.470,52.734,39.551,28.809,77.637,-18.066
1584600042.474,34.668,32.715,27.344,83.496,14.648
1584600042.477,-5.859,25.879,27.832,-20.020,41.016
1584600042.481,2.441,28.320,31.738,-44.922,30.762
1584600042.485,45.410,35.645,34.668,62.988,-4.883
1584600042.489,47.363,36.133,28.320,102.051,-13.672
1584600042.493,4.883,27.832,22.461,1.953,-8.301
1584600042.497,-4.883,26.367,29.785,-53.711,3.906
1584600042.501,34.668,38.574,37.598,34.668,70.801
1584600042.505,54.199,33.691,36.133,109.375,89.355
1584600042.509,24.414,29.297,33.691,44.434,42.969
1584600042.513,-7.324,32.227,27.832,-37.109,-17.578
1584600042.517,31.250,38.574,28.809,13.184,4.395
1584600042.520,70.801,47.852,36.621,106.934,20.996
1584600042.524,32.227,29.297,23.926,60.059,60.547
1584600042.528,-14.160,18.555,19.043,-51.270,34.180
1584600042.532,10.254,29.785,25.391,-38.086,-21.973
1584600042.536,56.152,33.203,27.832,73.730,18.066
1584600042.540,51.758,35.156,23.926,90.820,-18.066
1584600042.544,9.766,39.551,20.996,-13.672,-25.391
1584600042.548,-0.488,31.738,17.090,-39.062,20.508
1584600042.552,37.109,36.133,19.043,50.781,39.062
1584600042.556,53.711,42.480,39.062,95.215,23.926
1584600042.560,22.949,35.645,45.898,29.785,-15.625
1584600042.563,-5.859,28.320,33.203,-46.875,18.555
1584600042.567,22.949,28.320,27.344,13.184,67.871
1584600042.571,53.223,36.621,26.855,102.051,50.293
1584600042.575,25.391,44.922,26.855,41.992,38.574
1584600042.579,-15.625,32.227,26.367,-52.734,-6.348
1584600042.583,5.371,23.926,25.879,-14.648,-22.461
1584600042.587,44.922,31.738,29.785,79.590,5.859
1584600042.591,25.879,33.691,31.738,59.570,-22.949
1584600042.595,-15.137,28.320,27.832,-34.180,17.090
1584600042.599,-1.465,26.855,25.879,-41.992,74.707
1584600042.602,43.945,30.273,32.715,66.406,38.086
1584600042.606,48.340,42.480,41.016,102.051,39.062
1584600042.610,0.488,29.297,29.297,-3.906,45.898
1584600042.614,-8.301,12.695,20.020,-41.504,41.504
1584600042.618,36.133,24.414,21.484,48.340,2.930
1584600042.622,37.598,35.645,18.555,91.309,-10.742
1584600042.626,1.953,36.621,20.020,15.137,6.348
1584600042.630,-2.441,26.855,24.902,-51.758,0.488
1584600042.634,37.109,28.320,29.785,10.254,-2.930
1584600042.638,64.941,43.457,39.551,102.539,-6.348
1584600042.642,23.438,37.109,33.691,47.852,20.996
1584600042.645,-24.902,20.996,21.973,-61.035,0.000
1584600042.649,11.719,26.855,29.297,-15.137,16.113
1584600042.653,52.734,33.691,28.320,79.102,44.434
1584600042.657,29.785,35.156,20.020,60.059,40.039
1584600042.661,-14.160,29.785,24.414,-36.133,22.461
1584600042.665,2.441,24.902,33.203,-42.480,20.508
1584600042.669,65.918,35.156,41.016,69.824,60.547
1584600042.673,55.664,37.109,41.504,106.445,54.688
1584600042.677,-10.254,21.484,23.438,-5.859,11.230
1584600042.681,-19.531,19.531,15.625,-74.219,7.812
1584600042.685,25.879,31.738,18.066,16.113,-11.230
1584600042.688,46.387,31.250,19.531,77.637,22.461
1584600042.692,16.113,29.297,26.367,20.996,61.035
1584600042.696,-9.277,31.738,29.785,-41.992,33.691
1584600042.700,21.484,35.156,27.832,5.371,58.105
1584600042.704,52.734,36.621,28.320,97.168,21.973
1584600042.708,21.484,27.832,24.902,56.152,-22.461
1584600042.712,-23.438,16.602,19.043,-58.594,25.879
1584600042.716,6.836,24.414,26.367,-28.809,29.785
1584600042.720,57.617,39.551,36.133,91.309,2.441
1584600042.724,38.574,30.273,27.832,74.219,-5.859
1584600042.727,-8.301,21.973,21.484,-28.809,15.625
1584600042.731,1.953,21.973,26.855,-46.387,29.785
1584600042.735,51.270,31.250,32.227,54.199,6.836
1584600042.739,54.688,39.062,28.320,103.027,41.992
1584600042.743,2.441,27.344,20.020,13.184,70.801
1584600042.747,-9.766,25.391,20.508,-57.617,42.480
1584600042.751,36.621,31.250,25.879,20.020,-3.906
1584600042.755,45.898,33.691,19.531,99.609,0.488
1584600042.759,16.113,32.715,21.973,39.062,24.902
1584600042.763,-1.465,32.227,35.156,-39.062,52.734
1584600042.767,22.461,27.832,27.344,-4.395,63.965
1584600042.770,48.340,21.484,20.996,91.797,42.969
1584600042.774,25.391,28.320,24.414,64.941,88.379
1584600042.778,-14.648,26.367,22.949,-53.223,91.797
1584600042.782,6.348,22.949,26.367,-42.480,60.059
1584600042.786,53.223,27.344,36.133,70.312,55.176
1584600042.790,46.875,27.832,34.668,86.914,0.488
1584600042.794,-2.441,28.809,27.832,-13.672,-1.465
1584600042.798,-9.766,26.367,32.227,-43.945,29.297
1584600042.802,42.480,32.227,34.668,55.664,25.879
1584600042.806,54.688,40.527,33.691,107.422,47.363
1584600042.810,5.859,34.180,25.879,15.625,79.590
1584600042.813,-12.207,20.508,21.484,-49.805,107.910
1584600042.817,33.203,21.973,29.785,35.156,85.938
1584600042.821,55.664,31.738,34.668,103.516,1.465
1584600042.825,17.090,28.320,23.926,27.344,18.555
1584600042.829,-5.371,23.438,22.949,-48.340,19.531
1584600042.833,28.320,24.414,23.926,-9.277,26.855
1584600042.837,57.617,31.738,22.461,85.938,61.035
1584600042.841,41.504,34.180,28.809,74.707,41.016
1584600042.845,-2.930,24.414,24.902,-26.367,24.902
1584600042.849,6.836,20.508,18.066,-27.832,15.137
1584600042.852,51.758,27.344,21.973,77.148,53.711
1584600042.856,54.199,31.250,30.273,112.305,48.828
1584600042.860,5.859,25.879,27.344,3.906,47.852
1584600042.864,-10.254,26.855,21.484,-62.500,75.195
1584600042.868,32.715,29.297,21.484,25.879,58.105
1584600042.872,49.805,30.273,23.438,88.867,-0.488
1584600042.876,16.113,28.809,26.367,20.508,32.227
1584600042.880,-10.742,27.344,25.391,-49.805,88.379
1584600042.884,20.508,25.391,19.531,8.789,7.812
1584600042.888,47.852,23.926,15.137,84.473,0.000
1584600042.892,21.484,23.438,18.066,52.734,41.504
1584600042.895,-14.648,20.508,22.949,-38.574,26.855
1584600042.899,10.254,25.391,20.996,-26.855,45.898
1584600042.903,53.223,28.320,20.020,79.590,35.156
1584600042.907,41.016,32.715,24.414,76.172,42.480
1584600042.911,-5.371,26.855,23.438,-30.762,74.219
1584600042.915,6.836,21.484,27.832,-50.781,46.387
1584600042.919,54.688,27.344,33.203,52.246,22.949
1584600042.923,41.504,25.391,31.738,84.473,39.551
1584600042.927,1.465,21.484,29.297,-6.836,74.707
1584600042.931,-0.977,22.949,30.273,-53.711,59.570
1584600042.935,40.527,24.414,31.250,31.738,29.785
1584600042.938,62.988,35.645,40.527,100.586,-31.738
1584600042.942,30.273,40.039,38.574,27.832,-16.602
1584600042.946,-8.301,24.414,21.973,-57.129,16.113
1584600042.950,20.508,20.996,22.461,4.883,-17.090
1584600042.954,61.523,29.297,28.809,96.191,-9.277
1584600042.958,35.156,27.344,29.785,55.176,25.391
1584600042.962,-4.883,22.461,29.297,-46.387,52.246
1584600042.966,15.625,23.926,26.855,-31.250,64.453
1584600042.970,52.734,25.391,29.785,71.289,18.066
1584600042.974,41.992,27.344,31.250,73.242,26.367
1584600042.977,-0.488,30.762,29.785,-24.902,49.805
1584600042.981,1.465,32.227,33.203,-44.922,59.570
1584600042.985,45.410,30.762,35.156,48.828,32.715
1584600042.989,49.316,29.785,34.668,87.891,-5.371
1584600042.993,10.254,28.320,38.574,4.395,31.250
1584600042.997,0.488,26.855,40.039,-53.711,46.875
1584600043.001,41.016,35.645,40.527,34.668,20.996
1584600043.005,49.805,32.715,31.738,92.285,20.020
1584600043.009,10.742,29.297,27.344,13.184,55.176
1584600043.013,-3.906,29.785,31.738,-52.734,27.832
1584600043.017,28.320,18.066,30.273,-8.789,31.738
1584600043.020,49.316,18.066,27.344,75.195,94.238
1584600043.024,24.414,29.785,28.809,56.641,55.664
1584600043.028,-2.930,32.227,32.715,-27.344,42.969
1584600043.032,13.672,30.762,26.367,-22.949,68.848
1584600043.036,51.758,33.203,23.438,80.566,60.059
1584600043.040,41.992,30.273,27.832,87.402,39.551
1584600043.044,3.418,30.762,29.297,-22.461,38.086
1584600043.048,26.855,30.762,21.973,-33.691,13.184
1584600043.052,78.613,30.762,28.320,76.172,-55.176
1584600043.056,63.965,30.273,37.598,106.934,-13.672
1584600043.060,2.441,25.879,34.180,0.000,2.930
1584600043.063,-5.859,24.414,35.645,-65.918,-15.137
1584600043.067,35.645,26.367,39.062,17.090,22.461
1584600043.071,47.852,24.414,41.016,100.586,37.109
1584600043.075,8.301,18.555,42.480,46.875,51.758
1584600043.079,-24.902,10.742,46.387,-41.016,43.457
1584600043.083,13.184,11.230,53.711,0.000,25.391
1584600043.087,48.340,15.137,53.711,101.074,28.809
1584600043.091,13.184,7.812,52.246,80.078,31.738
1584600043.095,-23.926,-0.977,52.734,-23.926,16.113
1584600043.099,-8.789,-2.441,53.223,-21.484,17.578
1584600043.102,35.156,8.789,59.570,87.402,20.996
1584600043.106,32.227,6.348,60.547,99.121,52.734
1584600043.110,-14.160,-3.906,52.734,0.488,35.156
1584600043.114,-16.113,-0.977,56.641,-35.156,-17.090
1584600043.118,29.785,3.906,60.547,66.895,-50.293
1584600043.122,47.363,6.836,58.594,126.953,-0.488
1584600043.126,9.277,3.418,58.105,36.621,25.391
1584600043.130,-5.859,6.348,55.176,-23.926,-11.719
1584600043.134,38.574,14.160,57.129,48.340,11.230
1584600043.138,60.547,18.066,58.105,129.883,48.828
1584600043.142,15.137,14.648,44.434,67.871,59.570
1584600043.145,-20.020,9.277,32.715,-37.109,-5.371
1584600043.149,18.555,18.066,32.227,-14.160,-92.285
1584600043.153,52.246,27.344,41.504,88.867,20.508
1584600043.157,33.691,22.949,49.316,90.820,56.152
1584600043.161,-11.719,17.578,41.992,-19.531,-22.949
1584600043.165,0.488,19.531,41.504,-31.250,30.273
1584600043.169,59.570,27.344,55.176,85.449,43.945
1584600043.173,59.570,28.320,49.316,117.676,29.297
1584600043.177,0.000,17.578,38.086,17.578,25.391
1584600043.181,-15.137,12.695,37.598,-44.434,-0.488
1584600043.185,36.621,25.391,44.434,43.945,24.902
1584600043.188,57.129,32.715,49.805,116.699,50.293
1584600043.192,12.695,18.555,44.434,37.109,28.809
1584600043.196,-16.113,12.695,35.156,-45.898,45.898
1584600043.200,26.367,27.344,34.180,13.672,21.973
1584600043.204,60.547,36.621,35.156,106.934,28.320
1584600043.208,29.785,28.809,33.691,77.637,28.809
1584600043.212,-4.395,18.066,29.297,-22.461,-23.438
1584600043.216,22.949,20.508,33.203,-13.672,4.395
1584600043.220,56.152,23.926,33.691,86.914,-0.488
1584600043.224,35.156,19.531,27.832,83.008,21.484
1584600043.227,0.488,20.508,27.832,-14.160,34.668
1584600043.231,12.695,26.855,29.297,-31.738,-0.977
1584600043.235,58.594,37.598,40.039,74.219,33.691
1584600043.239,70.312,33.691,43.945,117.676,39.551
1584600043.243,20.996,27.832,35.156,14.160,36.621
1584600043.247,-2.441,34.180,32.715,-43.945,35.156
1584600043.251,41.504,30.762,39.551,39.062,32.715
1584600043.255,48.828,23.926,36.133,98.633,41.504
1584600043.259,13.672,22.461,32.227,45.898,35.156
1584600043.263,-2.930,21.973,28.809,-41.016,26.367
1584600043.267,33.691,28.809,31.250,4.395,28.320
1584600043.270,63.965,33.203,33.691,111.816,60.547
1584600043.274,33.691,26.855,28.320,70.312,-3.906
1584600043.278,0.977,21.484,30.762,-37.598,-33.203
1584600043.282,20.508,24.414,36.133,-20.020,-18.066
1584600043.286,55.664,31.738,34.180,82.520,-1.465
1584600043.290,42.480,29.785,33.203,84.961,-17.578
1584600043.294,-3.418,24.902,30.273,-12.207,-11.230
1584600043.298,4.395,25.879,25.879,-35.645,57.617
1584600043.302,50.293,28.320,26.855,48.828,45.898
1584600043.306,54.688,30.762,21.973,84.961,20.020
1584600043.310,16.113,30.762,24.414,9.277,-13.184
1584600043.313,1.465,27.832,26.367,-48.340,-11.719
1584600043.317,35.156,27.344,25.391,21.973,2.930
1584600043.321,76.660,37.598,28.809,104.492,-1.465
1584600043.325,42.969,31.250,21.484,46.387,22.461
1584600043.329,-10.742,20.996,16.602,-45.898,7.324
1584600043.333,24.414,26.367,23.926,1.465,17.090
1584600043.337,61.035,34.668,30.762,88.867,20.020
1584600043.341,34.668,34.180,30.273,51.758,15.137
1584600043.345,-11.230,25.391,27.832,-33.203,77.148
1584600043.349,7.324,28.320,30.762,-26.855,43.457
1584600043.352,51.270,36.133,31.250,61.523,-30.762
1584600043.356,34.180,26.855,26.855,77.148,12.207
1584600043.360,-1.953,20.996,26.367,-10.742,76.172
1584600043.364,16.602,28.320,31.250,-33.691,59.570
1584600043.368,45.410,31.738,29.785,50.293,45.410
1584600043.372,33.691,27.832,27.832,86.426,30.273
1584600043.376,0.977,24.902,35.156,12.207,38.086
1584600043.380,-14.648,20.996,32.715,-54.688,57.617
1584600043.384,20.996,19.043,28.809,8.789,7.324
1584600043.388,55.176,24.414,36.621,96.680,17.090
1584600043.392,29.785,25.879,34.668,45.898,60.547
1584600043.395,-9.277,23.926,31.738,-48.340,74.219
1584600043.399,21.484,30.762,34.668,-13.184,40.527
1584600043.403,63.965,39.062,37.598,89.844,7.812
1584600043.407,43.945,35.156,36.621,79.590,38.574
1584600043.411,3.906,35.156,35.645,-19.531,41.992
1584600043.415,16.602,38.086,37.598,-25.879,27.832
1584600043.419,52.734,31.250,28.320,74.707,-0.977
1584600043.423,43.945,33.203,26.855,93.262,44.434
1584600043.427,12.207,32.715,30.762,-6.348,20.508
1584600043.431,1.953,29.297,23.926,-50.781,-65.430
1584600043.435,32.227,32.715,26.855,26.367,-44.434
1584600043.438,49.805,33.203,33.203,88.379,33.691
1584600043.442,7.324,24.902,32.227,19.531,45.410
1584600043.446,-11.719,27.344,33.203,-48.340,28.320
1584600043.450,25.879,31.738,27.344,21.973,73.730
1584600043.454,51.270,23.438,28.320,106.445,114.746
1584600043.458,26.367,22.461,34.180,54.688,81.543
1584600043.462,-5.371,22.949,33.203,-39.062,91.797
1584600043.466,21.484,26.367,37.109,-8.301,62.500
1584600043.470,59.082,34.180,35.156,90.820,25.391
1584600043.474,36.133,29.785,23.438,77.148,51.270
1584600043.477,-9.277,23.438,10.254,-26.855,87.891
1584600043.481,1.953,28.809,19.043,-47.852,37.109
1584600043.485,44.434,38.574,34.668,64.453,-47.363
1584600043.489,42.969,37.598,30.273,107.422,15.137
1584600043.493,0.488,24.902,22.949,10.742,42.480
1584600043.497,-5.371,25.879,24.414,-38.086,53.711
1584600043.501,39.551,40.527,32.715,48.340,73.730
1584600043.505,56.152,35.156,35.156,122.070,84.473
1584600043.509,13.672,19.043,25.879,40.527,70.312
1584600043.513,-16.602,19.043,20.996,-50.781,57.617
1584600043.517,25.879,24.902,34.180,7.324,36.621
1584600043.520,59.082,24.414,44.922,113.281,14.648
1584600043.524,20.508,22.461,29.785,70.801,-4.883
1584600043.528,-21.973,17.090,15.137,-49.805,-53.223
1584600043.532,7.324,23.926,24.902,-24.414,-46.387
1584600043.536,52.246,40.039,29.297,83.984,-18.555
1584600043.540,37.109,38.574,29.297,93.750,35.156
1584600043.544,-1.953,28.809,37.109,-13.672,58.594
1584600043.548,2.441,27.344,34.668,-48.340,12.207
1584600043.552,46.387,26.855,35.645,55.664,4.395
1584600043.556,53.223,22.949,31.738,103.027,47.852
1584600043.560,12.207,22.461,21.973,27.832,68.848
1584600043.563,14.160,35.645,38.086,-18.066,22.461
1584600043.567,54.199,39.551,45.410,46.875,42.969
1584600043.571,71.289,32.227,20.020,110.352,26.367
1584600043.575,46.875,39.551,30.273,51.270,-34.180
1584600043.579,2.441,37.598,33.691,-39.551,-69.336
1584600043.583,24.902,34.180,12.207,6.836,-27.344
1584600043.587,79.590,42.480,36.621,114.746,2.930
1584600043.591,53.223,32.227,46.875,83.008,8.789
1584600043.595,-2.441,21.484,19.531,-28.809,52.246
1584600043.599,-2.441,13.672,9.277,-35.645,17.090
1584600043.602,62.988,39.551,35.645,74.707,-2.441
1584600043.606,60.547,42.969,38.574,104.492,32.715
1584600043.610,15.137,12.207,20.020,9.766,-9.277
1584600043.614,80.078,31.250,66.406,16.602,-40.039
1584600043.618,91.309,23.926,77.637,93.750,33.203
1584600043.622,19.043,19.043,11.230,68.848,57.129
1584600043.626,-29.785,45.898,-6.836,-38.086,24.414
1584600043.630,-36.133,48.340,37.598,-91.309,31.738
1584600043.634,16.113,41.992,32.227,-4.883,12.695
1584600043.638,100.098,61.035,69.824,138.672,23.438
1584600043.642,149.414,103.027,101.074,171.387,44.434
1584600043.645,14.160,70.312,57.617,-12.695,-20.508
1584600043.649,-101.074,-20.996,44.434,-127.930,14.648
1584600043.653,-72.266,-49.805,31.250,-45.898,59.570
1584600043.657,-84.961,-10.254,14.160,-52.246,3.906
1584600043.661,-124.512,0.000,-16.113,-150.391,-5.859
1584600043.665,-91.309,0.488,-17.578,-138.184,29.785
1584600043.669,-27.832,14.160,3.906,-16.113,46.387
1584600043.673,-10.254,30.273,9.277,32.715,56.152
1584600043.677,-44.922,20.508,8.789,-58.594,48.828
1584600043.681,-34.180,8.789,34.180,-93.262,15.625
1584600043.685,38.086,27.344,57.129,43.457,59.082
1584600043.688,49.805,17.578,41.016,114.746,82.031
1584600043.692,-0.488,15.625,14.160,6.348,36.133
1584600043.696,-30.273,34.180,17.578,-75.195,1.465
1584600043.700,16.602,27.832,38.086,-2.930,-13.184
1584600043.704,65.918,33.691,46.875,102.539,-3.906
1584600043.708,30.273,32.227,43.457,53.711,42.969
1584600043.712,-8.789,16.602,29.297,-37.109,56.152
1584600043.716,31.738,27.832,30.762,-4.395,-19.043
1584600043.720,62.500,28.809,43.945,80.078,-28.809
1584600043.724,46.387,3.418,32.227,72.754,5.371
1584600043.727,4.395,8.301,16.602,-20.508,13.672
1584600043.731,11.230,20.996,22.949,-25.879,55.664
1584600043.735,55.176,16.113,25.391,72.754,55.664
1584600043.739,48.340,7.324,26.855,101.074,73.730
1584600043.743,9.766,9.766,45.898,19.043,100.586
1584600043.747,-1.465,24.414,41.992,-39.551,64.453
1584600043.751,40.039,24.902,45.410,35.156,37.598
1584600043.755,51.758,18.555,54.199,99.121,2.930
1584600043.759,21.973,22.461,39.551,53.711,30.762
1584600043.763,-5.859,27.832,32.715,-29.785,40.039
1584600043.767,7.324,3.418,25.879,-21.484,22.949
1584600043.770,38.574,10.254,28.320,75.195,86.914
1584600043.774,5.859,18.555,24.902,42.969,56.152
1584600043.778,-35.645,4.395,26.367,-63.965,-0.488
1584600043.782,-7.324,2.441,34.668,-42.480,17.578
1584600043.786,50.781,7.324,44.922,90.332,49.316
1584600043.790,27.832,11.719,40.039,77.148,23.438
1584600043.794,-38.086,14.648,31.250,-59.082,4.883
1584600043.798,-34.668,17.578,38.086,-83.496,29.785
1584600043.802,11.230,18.066,33.203,12.207,56.641
1584600043.806,21.973,28.809,37.598,67.383,88.379
1584600043.810,-36.621,21.484,36.133,-29.297,98.145
1584600043.813,-67.383,2.441,26.855,-118.164,60.547
1584600043.817,-24.902,18.066,29.297,-43.457,37.109
1584600043.821,-14.648,32.715,40.527,42.969,-1.953
1584600043.825,-41.992,19.531,43.945,-19.531,3.906
1584600043.829,-71.777,5.859,20.996,-110.840,58.105
1584600043.833,-46.875,7.324,7.812,-72.266,33.691
1584600043.837,13.672,26.367,31.250,43.457,9.766
1584600043.841,-3.418,28.809,42.969,32.715,-11.719
1584600043.845,-62.988,15.137,24.414,-85.449,49.316
1584600043.849,-41.992,20.020,9.766,-93.750,72.754
1584600043.852,16.113,25.391,20.508,30.762,20.996
1584600043.856,9.766,20.508,22.949,65.918,51.270
1584600043.860,-36.133,9.277,10.254,-42.969,51.758
1584600043.864,-35.645,5.859,-0.488,-84.961,29.297
1584600043.868,28.320,24.902,2.930,23.438,12.695
1584600043.872,56.641,47.852,25.879,92.773,8.301
1584600043.876,8.301,31.250,20.996,2.441,53.223
1584600043.880,-10.254,15.137,5.859,-65.430,45.410
1584600043.884,40.527,25.879,1.953,17.090,46.387
1584600043.888,62.988,19.531,-1.465,97.656,76.660
1584600043.892,34.180,11.719,8.301,58.105,36.133
1584600043.895,7.324,17.090,4.883,-33.203,-1.465
1584600043.899,27.832,16.113,-2.930,-8.789,37.109
1584600043.903,61.523,13.672,9.766,84.961,13.184
1584600043.907,61.523,28.320,21.973,80.078,9.277
1584600043.911,29.297,31.250,20.508,0.488,64.941
1584600043.915,24.414,11.230,13.672,-9.766,17.090
1584600043.919,62.500,8.301,21.973,89.844,-5.859
1584600043.923,66.895,20.996,25.391,105.957,2.441
1584600043.927,25.391,18.066,14.160,12.207,31.250
1584600043.931,18.066,15.625,15.137,-26.855,64.453
1584600043.935,69.824,25.391,27.344,63.477,51.758
1584600043.938,79.102,18.066,31.250,126.953,64.453
1584600043.942,33.203,12.207,23.926,54.688,63.965
1584600043.946,13.184,14.648,19.043,-14.648,30.762
1584600043.950,51.270,21.973,24.902,30.273,9.766
1584600043.954,78.125,25.879,30.273,112.793,15.137
1584600043.958,41.504,18.555,25.879,76.172,39.551
1584600043.962,4.883,18.555,16.113,-24.414,36.621
1584600043.966,31.250,27.344,19.043,4.395,77.148
1584600043.970,71.289,26.855,22.949,103.516,34.668
1584600043.974,55.664,20.996,18.555,94.727,-15.137
1584600043.977,23.438,29.785,27.832,9.277,38.086
1584600043.981,39.062,37.109,39.551,2.441,58.105
1584600043.985,69.336,21.973,35.645,88.379,25.391
1584600043.989,63.965,8.301,30.762,108.887,36.133
1584600043.993,21.484,7.324,16.602,14.648,32.227
1584600043.997,4.883,18.066,20.508,-25.391,3.418
1584600044.001,45.410,29.297,30.762,56.641,10.254
1584600044.005,62.988,21.973,26.855,116.699,-10.742
1584600044.009,36.133,23.926,32.715,56.641,26.367
1584600044.013,25.391,32.227,32.227,-20.508,14.648
1584600044.017,48.828,22.461,14.648,23.438,-30.273
1584600044.020,69.336,22.461,12.207,107.910,40.039
1584600044.024,41.504,25.879,26.367,69.336,37.109
1584600044.028,5.371,21.973,33.203,-18.555,-3.418
1584600044.032,31.250,23.926,30.762,2.930,3.906
1584600044.036,64.941,15.137,31.250,84.961,33.691
1584600044.040,42.480,21.973,21.973,83.008,86.914
1584600044.044,11.719,41.016,28.320,-2.930,73.242
1584600044.048,20.020,43.945,33.203,-24.414,77.637
1584600044.052,51.758,37.598,22.461,56.152,59.570
1584600044.056,60.059,30.273,21.973,102.051,12.207
1584600044.060,22.949,25.391,20.996,27.344,25.879
1584600044.063,25.391,24.902,35.156,-19.531,24.902
1584600044.067,62.500,15.625,29.785,45.410,12.695
1584600044.071,58.105,6.836,14.648,104.004,9.766
1584600044.075,28.320,12.207,20.508,51.758,20.996
1584600044.079,-2.441,24.414,27.344,-48.828,19.043
1584600044.083,14.160,37.109,32.715,-25.391,-0.488
1584600044.087,48.340,46.875,29.785,73.242,0.000
1584600044.091,38.574,37.109,27.344,66.895,58.594
1584600044.095,15.137,43.945,44.434,-15.625,53.711
1584600044.099,30.762,47.363,39.551,-18.066,9.277
1584600044.102,60.059,28.320,17.578,78.125,53.711
1584600044.106,45.898,20.020,18.555,79.590,15.625
1584600044.110,0.000,31.250,25.391,-16.113,-40.039
1584600044.114,-1.465,36.621,32.715,-40.527,10.742
1584600044.118,41.016,28.320,31.250,55.664,41.016
1584600044.122,43.457,30.273,27.832,107.910,26.855
1584600044.126,5.371,35.156,32.227,18.066,-3.418
1584600044.130,-6.836,30.762,33.203,-38.574,36.621
1584600044.134,34.668,32.227,30.762,22.461,83.984
1584600044.138,63.477,32.715,36.133,102.539,49.805
1584600044.142,24.902,31.250,37.598,44.434,-9.277
1584600044.145,-15.137,33.691,24.902,-53.711,-10.742
1584600044.149,18.555,35.645,18.066,-1.465,2.930
1584600044.153,61.035,42.480,34.180,100.098,19.531
1584600044.157,41.016,41.992,51.270,81.055,32.715
1584600044.161,-3.906,30.273,43.945,-16.113,-17.090
1584600044.165,4.883,24.414,29.297,-29.297,10.742
1584600044.169,59.570,39.551,34.668,76.172,58.594
1584600044.173,57.129,42.480,41.016,105.957,47.363
1584600044.177,-8.789,20.996,23.438,1.465,29.297
1584600044.181,-5.859,25.879,27.344,-46.387,53.223
1584600044.185,60.547,38.574,52.734,52.734,67.871
1584600044.188,85.449,39.551,62.500,132.324,26.367
1584600044.192,21.484,38.574,37.598,40.039,-20.508
1584600044.196,-25.879,34.180,19.043,-58.594,-12.207
1584600044.200,21.973,40.527,25.879,-1.465,-1.953
1584600044.204,51.758,38.574,23.926,83.984,12.695
1584600044.208,17.578,29.785,20.020,43.457,-7.812
1584600044.212,-9.277,29.785,21.484,-47.852,-13.184
1584600044.216,16.113,36.133,23.926,-28.809,20.508
1584600044.220,60.059,42.969,27.832,81.055,35.645
1584600044.224,45.410,34.668,26.855,80.078,31.250
1584600044.227,1.953,21.973,28.320,-13.184,23.438
1584600044.231,15.625,27.832,30.273,-33.203,57.617
1584600044.235,54.199,42.480,22.949,53.223,78.613
1584600044.239,40.039,42.969,17.578,89.844,52.246
1584600044.243,-5.371,34.668,17.578,4.883,63.477
1584600044.247,-7.812,27.832,20.508,-51.270,32.227
1584600044.251,42.969,33.691,30.762,29.785,15.625
1584600044.255,64.941,39.551,33.691,106.445,-19.043
1584600044.259,25.879,34.668,33.203,34.668,-37.109
1584600044.263,-0.488,27.832,39.062,-44.922,74.219
1584600044.267,37.598,31.250,35.645,18.066,50.293
1584600044.270,59.082,26.367,24.414,95.215,1.465
1584600044.274,31.738,13.184,26.367,61.035,79.590
1584600044.278,-1.953,20.020,25.879,-33.691,55.176
1584600044.282,23.438,48.340,32.715,-5.371,32.715
1584600044.286,63.965,59.570,28.809,94.727,74.219
1584600044.290,45.898,40.039,16.113,83.984,59.570
1584600044.294,-0.488,30.273,18.066,-5.371,47.852
1584600044.298,7.324,39.062,30.273,-31.250,10.254
1584600044.302,45.410,33.691,32.227,66.895,11.719
1584600044.306,50.293,31.738,24.902,111.816,68.359
1584600044.310,15.137,42.969,16.602,12.695,53.711
1584600044.313,-0.977,42.969,18.555,-48.828,2.930
1584600044.317,35.645,43.457,29.785,24.414,11.230
1584600044.321,41.016,39.062,27.832,80.078,54.199
1584600044.325,8.789,34.180,29.785,17.578,68.848
1584600044.329,-7.812,23.926,23.438,-49.316,52.246
1584600044.333,26.367,24.902,17.090,-3.418,37.598
1584600044.337,57.129,37.109,34.180,87.891,47.363
1584600044.341,37.109,39.062,41.992,65.918,42.480
1584600044.345,-4.395,34.180,30.762,-42.480,35.645
1584600044.349,5.859,30.762,21.973,-46.387,18.066
1584600044.352,49.316,39.062,19.043,63.965,37.109
1584600044.356,47.852,42.969,26.367,85.449,-8.301
1584600044.360,1.953,27.832,23.438,-19.043,-17.090
1584600044.364,2.441,26.367,21.484,-47.852,-21.973
1584600044.368,45.410,39.062,23.926,39.062,0.977
1584600044.372,44.434,40.527,25.391,84.961,103.516
1584600044.376,9.277,34.668,36.621,21.973,87.402
1584600044.380,-2.441,31.250,32.227,-32.715,62.988
1584600044.384,28.809,29.785,24.414,26.367,23.926
1584600044.388,47.363,23.438,25.391,97.168,-20.020
1584600044.392,14.648,26.367,15.137,43.945,-9.766
1584600044.395,-23.438,41.016,-1.465,-52.246,66.895
1584600044.399,21.484,42.480,16.602,-5.859,61.035
1584600044.403,68.359,35.156,28.809,103.516,2.930
1584600044.407,27.344,35.645,28.809,74.219,-32.227
1584600044.411,-25.391,27.832,29.297,-34.668,-18.066
1584600044.415,0.000,21.973,37.598,-17.578,29.297
1584600044.419,73.242,34.180,49.805,110.840,-32.715
1584600044.423,63.965,42.969,35.645,111.816,-40.039
1584600044.427,-11.719,35.645,16.602,-11.230,35.645
1584600044.431,-15.625,36.621,20.020,-53.223,12.207
1584600044.435,40.527,43.945,24.902,34.180,32.715
1584600044.438,51.758,42.480,17.578,95.703,83.008
1584600044.442,10.742,42.969,18.066,19.531,94.727
1584600044.446,-5.371,46.875,27.832,-45.410,58.105
1584600044.450,33.691,52.246,29.297,15.625,-8.789
1584600044.454,46.875,42.969,15.625,79.590,38.574
1584600044.458,19.043,35.156,14.160,35.645,77.637
1584600044.462,-2.930,42.969,28.809,-34.180,65.918
1584600044.466,16.113,51.270,24.414,-16.602,23.438
1584600044.470,54.688,55.664,22.949,80.566,41.016
1584600044.474,42.969,44.434,35.645,73.242,28.809
1584600044.477,-10.742,45.410,26.855,-43.945,-23.926
1584600044.481,-11.719,40.527,15.625,-46.875,12.207
1584600044.485,53.711,39.551,26.367,63.477,38.574
1584600044.489,59.082,41.992,30.762,84.473,47.852
1584600044.493,-2.441,32.715,19.043,-9.766,51.270
1584600044.497,-13.672,30.762,18.066,-60.547,26.855
1584600044.501,38.086,36.133,27.344,30.762,24.902
1584600044.505,58.594,44.434,33.691,106.445,80.566
1584600044.509,24.414,46.875,37.109,35.645,85.938
1584600044.513,-4.883,40.527,39.551,-44.434,47.363
1584600044.517,22.461,39.551,31.738,3.906,1.953
1584600044.520,52.734,37.598,26.367,93.262,-28.809
1584600044.524,15.625,34.668,27.344,54.199,28.320
1584600044.528,-22.949,32.715,25.391,-48.828,48.828
1584600044.532,7.812,38.574,24.414,-23.438,-12.695
1584600044.536,53.223,42.480,30.762,85.449,-8.789
1584600044.540,43.457,31.250,35.645,93.750,70.312
1584600044.544,-6.348,36.133,25.879,-5.371,51.270
1584600044.548,0.488,44.434,36.621,-29.785,0.977
1584600044.552,49.316,45.410,47.852,63.477,41.992
1584600044.556,40.039,48.828,28.809,90.332,16.113
1584600044.560,-7.324,28.809,14.648,-5.859,3.906
1584600044.563,-8.301,8.301,24.414,-56.152,56.641
1584600044.567,40.039,38.574,33.203,29.297,43.945
1584600044.571,57.617,48.340,31.250,109.863,4.395
1584600044.575,10.742,34.180,26.367,38.574,48.828
1584600044.579,-20.508,43.457,24.414,-57.617,36.621
1584600044.583,23.438,39.062,24.902,-4.395,17.090
1584600044.587,60.059,33.203,28.320,91.797,21.973
1584600044.591,30.273,43.457,28.809,61.523,40.527
1584600044.595,-16.602,33.691,24.414,-42.969,-5.371
1584600044.599,1.953,28.809,35.156,-27.832,-20.020
1584600044.602,40.039,32.715,36.621,76.660,29.785
1584600044.606,35.645,39.551,35.645,78.613,18.555
1584600044.610,-7.812,43.457,35.156,-27.344,-13.184
1584600044.614,-12.207,31.738,32.715,-58.105,-27.344
1584600044.618,33.203,19.043,33.203,42.969,35.156
1584600044.622,32.227,26.855,26.367,90.332,60.059
1584600044.626,-21.484,32.715,25.879,-0.977,46.875
1584600044.630,-44.922,40.527,27.344,-80.078,97.168
1584600044.634,-1.465,48.340,21.973,-19.043,63.965
1584600044.638,21.484,44.434,16.602,63.477,48.828
1584600044.642,-18.066,35.645,20.508,6.348,64.941
1584600044.645,-42.969,39.551,33.203,-73.730,36.621
1584600044.649,-18.066,49.805,31.250,-45.898,41.504
1584600044.653,4.883,53.223,21.973,29.785,59.082
1584600044.657,-24.414,53.711,20.020,9.277,7.812
1584600044.661,-55.176,58.105,24.902,-84.961,-30.762
1584600044.665,-42.480,50.293,19.043,-87.402,-12.695
1584600044.669,-23.926,41.016,11.230,-6.348,25.879
1584600044.673,-41.504,55.176,9.277,-5.859,18.066
1584600044.677,-75.195,57.617,6.348,-92.285,9.277
1584600044.681,-77.637,50.781,6.348,-134.277,54.199
1584600044.685,-53.223,43.945,10.254,-53.223,96.680
1584600044.688,-49.316,55.176,17.578,-5.859,77.637
1584600044.692,-79.590,53.711,12.695,-79.590,15.625
1584600044.696,-88.867,60.059,11.230,-139.648,39.551
1584600044.700,-63.477,75.195,15.137,-93.750,38.086
1584600044.704,-56.152,62.012,11.230,-20.020,22.949
1584600044.708,-85.449,44.434,6.836,-69.336,14.648
1584600044.712,-101.562,39.062,6.836,-151.367,31.250
1584600044.716,-62.500,44.434,13.672,-99.121,12.207
1584600044.720,-20.020,55.176,12.207,9.766,3.418
1584600044.724,-28.320,58.594,11.719,10.742,44.922
1584600044.727,-63.965,45.898,19.043,-81.543,15.137
1584600044.731,-52.246,36.133,14.160,-95.215,-0.488
1584600044.735,1.465,49.316,11.230,16.602,-21.973
1584600044.739,-0.977,38.574,11.230,48.340,1.953
1584600044.743,-31.250,16.602,17.578,-39.062,-2.930
1584600044.747,-18.555,33.691,27.832,-58.105,1.953
1584600044.751,18.066,36.133,13.672,22.949,39.551
1584600044.755,33.691,34.668,15.625,89.844,30.273
1584600044.759,9.277,28.320,28.320,23.438,-2.441
1584600044.763,8.301,29.785,29.297,-40.527,31.250
1584600044.767,59.570,41.016,36.621,51.758,51.270
1584600044.770,76.172,23.438,36.133,137.207,31.738
1584600044.774,38.086,16.602,17.578,83.984,12.695
1584600044.778,-1.953,23.926,15.625,-16.113,12.207
1584600044.782,28.809,32.227,25.391,-2.441,28.320
1584600044.786,90.332,36.133,25.879,111.816,8.789
1584600044.790,79.590,32.227,22.949,122.559,42.480
1584600044.794,40.039,33.203,20.996,29.785,64.941
1584600044.798,49.316,33.691,10.742,7.324,73.730
1584600044.802,99.121,38.574,19.043,102.539,107.422
1584600044.806,108.398,40.527,39.551,144.043,98.145
1584600044.810,59.570,33.203,34.180,50.781,17.578
1584600044.813,45.410,30.762,27.832,-1.953,3.418
1584600044.817,85.938,31.738,27.344,82.031,-20.020
1584600044.821,111.816,38.086,29.297,154.297,-24.902
1584600044.825,79.102,35.156,30.762,93.262,-3.418
1584600044.829,46.875,20.996,24.902,10.742,8.789
1584600044.833,76.172,35.645,25.879,56.152,34.668
1584600044.837,106.445,36.133,32.715,151.855,-1.953
1584600044.841,76.172,27.832,30.273,118.164,16.602
1584600044.845,37.598,37.598,24.414,6.836,-5.371
1584600044.849,62.988,41.992,29.297,11.230,-30.762
1584600044.852,103.027,39.062,31.250,127.930,11.230
1584600044.856,83.008,33.203,22.461,135.742,3.418
1584600044.860,29.297,27.344,18.555,22.461,34.180
1584600044.864,40.039,30.273,21.973,-2.930,75.684
1584600044.868,91.309,38.574,34.668,101.562,69.824
1584600044.872,88.379,34.668,33.691,147.461,-0.488
1584600044.876,46.875,18.066,28.320,53.711,-3.906
1584600044.880,38.574,21.484,35.156,-8.301,24.414
1584600044.884,80.566,43.457,35.156,67.383,21.484
1584600044.888,90.820,40.527,22.949,135.742,11.719
1584600044.892,41.504,28.809,14.648,65.430,28.809
1584600044.895,18.066,37.598,23.926,-23.926,25.391
1584600044.899,45.898,37.109,23.438,20.508,-32.227
1584600044.903,69.336,26.855,25.879,125.488,33.203
1584600044.907,52.734,28.809,34.668,102.051,76.660
1584600044.911,16.113,23.438,26.367,-0.488,19.043
1584600044.915,34.668,30.762,27.344,-3.418,-4.395
1584600044.919,81.055,42.480,35.645,93.262,10.254
1584600044.923,70.801,37.598,27.832,108.398,8.301
1584600044.927,18.555,31.250,19.043,10.254,28.320
1584600044.931,18.555,23.438,23.438,-26.855,31.738
1584600044.935,62.012,18.066,27.832,57.617,-22.461
1584600044.938,66.895,24.902,30.273,110.840,-15.625
1584600044.942,24.902,28.809,31.250,33.203,19.043
1584600044.946,11.719,32.227,35.156,-24.902,34.180
1584600044.950,50.293,30.762,37.598,44.434,20.996
1584600044.954,78.125,38.086,39.062,121.582,18.066
1584600044.958,51.758,41.504,37.109,73.242,-28.320
1584600044.962,10.742,26.855,24.902,-19.531,-2.441
1584600044.966,31.738,34.668,22.949,4.883,64.941
1584600044.970,72.266,39.551,25.879,99.609,29.785
1584600044.974,57.617,35.645,30.273,87.891,33.691
1584600044.977,10.742,32.715,34.180,-5.371,19.043
1584600044.981,14.648,22.949,27.832,-23.438,10.742
1584600044.985,62.988,35.156,30.762,74.707,58.594
1584600044.989,63.965,39.062,31.250,107.910,9.766
1584600044.993,23.926,33.203,23.926,12.695,26.855
1584600044.997,4.883,26.855,16.602,-32.227,64.941
1584600045.001,41.016,17.578,21.973,53.223,51.270
1584600045.005,65.430,25.391,29.785,115.234,68.359
1584600045.009,35.156,35.156,30.273,41.504,56.641
1584600045.013,5.859,36.621,30.273,-37.109,61.035
1584600045.017,37.109,41.016,29.785,21.973,118.164
1584600045.020,68.848,40.039,28.320,110.840,69.824
1584600045.024,41.016,40.039,24.414,66.895,33.691
1584600045.028,12.695,39.551,35.645,-26.855,20.996
1584600045.032,25.879,34.180,35.645,-9.277,32.715
1584600045.036,51.270,32.715,24.414,88.867,59.570
1584600045.040,40.527,29.785,29.785,92.773,40.039
1584600045.044,3.418,31.738,36.621,-6.348,33.691
1584600045.048,12.207,34.668,36.621,-23.926,20.508
1584600045.052,59.570,36.621,35.645,80.078,-1.953
1584600045.056,56.152,35.156,33.203,109.375,17.578
1584600045.060,3.906,35.645,28.809,6.348,36.621
1584600045.063,7.324,40.527,32.227,-38.086,-10.254
1584600045.067,64.941,33.203,31.250,62.012,-19.531
1584600045.071,95.215,36.621,29.785,134.277,18.555
1584600045.075,48.828,44.434,28.809,51.270,42.480
1584600045.079,-5.371,43.457,16.602,-52.246,76.172
1584600045.083,36.133,47.363,12.207,-2.441,69.824
1584600045.087,69.824,46.387,10.254,87.402,4.395
1584600045.091,28.320,39.551,4.395,38.086,11.230
1584600045.095,-8.789,41.992,3.418,-55.176,46.387
1584600045.099,21.484,48.828,5.371,-32.715,8.789
1584600045.102,66.406,53.711,3.418,73.730,62.988
1584600045.106,53.711,57.129,2.930,81.543,74.707
1584600045.110,14.648,51.758,2.441,-7.324,-45.410
1584600045.114,21.484,40.527,4.395,-34.180,-8.789
1584600045.118,71.289,36.621,9.766,50.781,68.359
1584600045.122,80.566,61.035,7.812,93.262,43.457
1584600045.126,36.621,70.801,-2.441,4.883,24.902
1584600045.130,19.043,61.523,-7.812,-58.105,20.020
1584600045.134,67.871,71.289,-1.465,23.926,43.945
1584600045.138,92.285,70.312,-0.977,108.887,41.504
1584600045.142,49.805,52.734,-10.254,45.898,40.039
1584600045.145,25.879,53.711,-11.719,-38.086,16.602
1584600045.149,65.918,65.430,-2.441,14.648,-31.738
1584600045.153,104.492,69.824,3.418,116.699,9.766
1584600045.157,81.543,63.965,2.930,97.168,19.043
1584600045.161,41.504,60.547,4.395,-3.418,4.395
1584600045.165,64.941,65.430,7.324,-4.395,-18.555
1584600045.169,98.633,64.453,5.859,91.797,-36.621
1584600045.173,81.543,63.477,4.883,110.352,-33.691
1584600045.177,37.598,60.547,1.953,6.836,6.348
1584600045.181,40.039,59.082,0.488,-35.645,92.773
1584600045.185,100.586,65.918,4.395,67.383,38.086
1584600045.188,117.188,68.359,5.859,127.441,-44.922
1584600045.192,77.637,62.012,7.812,48.340,-13.184
1584600045.196,60.547,59.570,13.672,-21.973,77.148
1584600045.200,85.449,62.988,14.160,41.504,74.707
1584600045.204,93.750,71.777,16.602,120.605,12.207
1584600045.208,58.105,68.359,15.137,73.242,-9.766
1584600045.212,18.555,41.992,-0.488,-25.391,36.133
1584600045.216,31.738,46.875,-0.488,2.441,13.184
1584600045.220,63.477,59.570,6.836,105.957,32.715
1584600045.224,47.852,52.246,7.812,82.520,61.035
1584600045.227,9.766,46.387,13.672,-15.625,5.859
1584600045.231,19.531,47.852,16.602,-17.090,27.344
1584600045.235,69.336,53.711,22.461,84.961,-4.395
1584600045.239,76.660,58.105,30.762,118.164,-31.250
1584600045.243,19.531,50.781,28.320,13.672,2.441
1584600045.247,-3.418,45.898,17.090,-49.805,-5.371
1584600045.251,47.852,45.898,21.973,42.480,-3.418
1584600045.255,72.266,47.852,28.320,112.305,-5.859
1584600045.259,28.320,52.246,22.461,30.273,-14.648
1584600045.263,10.254,47.852,20.508,-48.828,-17.090
1584600045.267,55.664,57.617,28.809,26.855,17.578
1584600045.270,84.473,60.059,32.227,118.652,23.438
1584600045.274,63.477,51.270,33.203,70.312,-21.484
1584600045.278,23.438,52.246,32.227,-20.996,2.930
1584600045.282,30.273,48.340,21.973,-10.742,22.949
1584600045.286,73.242,47.852,24.902,89.844,21.973
1584600045.290,56.152,39.062,25.879,88.867,111.328
1584600045.294,0.000,26.855,17.090,-30.273,85.449
1584600045.298,8.789,42.969,18.066,-54.199,104.980
1584600045.302,57.129,50.781,22.949,56.641,117.188
1584600045.306,58.105,43.945,23.438,95.215,43.457
1584600045.310,15.137,39.062,26.367,-0.488,48.340
1584600045.313,5.859,37.109,33.203,-48.340,16.602
1584600045.317,52.734,50.293,41.016,45.410,-6.836
1584600045.321,50.293,54.199,34.668,109.863,15.137
1584600045.325,1.465,34.668,22.949,41.016,7.812
1584600045.329,-4.395,35.645,23.438,-35.645,14.160
1584600045.333,29.785,45.898,20.996,11.719,55.176
1584600045.337,46.875,39.062,20.508,95.703,37.598
1584600045.341,23.438,39.551,34.180,65.430,4.395
1584600045.345,-14.160,38.574,34.668,-35.156,4.883
1584600045.349,3.418,32.227,31.250,-27.832,19.531
1584600045.352,50.781,33.691,34.668,83.984,27.832
1584600045.356,39.551,30.762,36.133,84.473,-1.953
1584600045.360,-4.883,31.738,34.180,-25.879,36.133
1584600045.364,0.000,36.133,26.855,-52.246,55.664
1584600045.368,51.758,46.875,32.715,50.293,31.738
1584600045.372,61.035,46.875,30.762,101.562,-40.527
1584600045.376,20.996,38.574,27.344,15.625,-29.297
1584600045.380,7.812,39.551,28.809,-53.711,48.340
1584600045.384,30.273,32.227,20.508,14.160,23.926
1584600045.388,39.551,29.785,22.949,99.121,-22.461
1584600045.392,7.324,25.879,22.461,41.016,8.301
1584600045.395,-15.137,21.484,16.602,-54.688,-13.184
1584600045.399,20.020,33.691,19.043,-5.371,16.602
1584600045.403,50.781,35.645,20.996,92.773,18.066
1584600045.407,29.785,31.250,21.484,65.430,-23.926
1584600045.411,-2.441,36.621,26.855,-23.438,47.363
1584600045.415,20.508,44.434,33.691,-7.324,86.914
1584600045.419,52.734,36.133,27.344,86.914,60.059
1584600045.423,36.133,26.367,21.484,85.938,18.066
1584600045.427,-2.930,19.043,25.391,-13.672,2.930
1584600045.431,-13.184,18.066,18.555,-45.410,40.527
1584600045.435,34.180,28.809,15.625,47.852,38.574
1584600045.438,61.035,32.715,22.461,112.305,4.883
1584600045.442,16.113,30.762,21.973,30.273,-0.488
1584600045.446,-25.879,35.645,21.973,-70.312,33.691
1584600045.450,2.441,38.086,24.414,-12.695,23.926
1584600045.454,42.969,40.527,26.855,94.238,22.461
1584600045.458,14.160,40.039,20.508,43.457,53.711
1584600045.462,-17.090,33.691,16.113,-55.176,79.590
1584600045.466,17.578,29.297,21.484,-12.695,66.895
1584600045.470,55.664,29.785,22.461,95.703,31.738
1584600045.474,49.316,35.645,29.297,87.891,41.016
1584600045.477,5.371,28.320,29.785,-22.461,75.684
1584600045.481,5.859,39.062,20.020,-37.109,55.176
1584600045.485,54.199,53.223,27.832,75.195,7.324
1584600045.489,51.270,41.504,30.273,106.934,17.578
1584600045.493,8.789,38.574,22.461,-5.371,13.672
1584600045.497,6.836,41.504,22.949,-65.430,-1.465
1584600045.501,51.270,40.527,19.043,26.855,0.488
1584600045.505,61.523,38.086,22.461,96.680,22.461
1584600045.509,16.113,30.762,28.809,24.414,29.785
1584600045.513,-15.137,23.926,21.973,-57.617,41.016
1584600045.517,15.625,32.227,24.414,12.207,18.066
1584600045.520,53.711,51.270,32.715,116.211,27.344
1584600045.524,21.973,41.504,28.320,60.059,38.086
1584600045.528,-24.414,27.344,16.602,-50.293,22.461
1584600045.532,0.488,29.297,10.742,-22.949,-22.461
1584600045.536,49.805,35.645,24.902,91.797,6.836
1584600045.540,39.551,41.504,33.691,87.402,42.969
1584600045.544,-16.602,29.785,17.578,-34.668,-0.977
1584600045.548,-11.230,25.879,15.137,-52.734,22.461
1584600045.552,38.574,24.414,25.879,61.035,93.750
1584600045.556,36.133,32.227,23.926,96.191,51.270
1584600045.560,-4.395,32.715,20.020,-7.812,-3.418
1584600045.563,-3.906,24.902,24.902,-57.617,47.852
1584600045.567,27.832,28.320,23.438,31.250,92.285
1584600045.571,37.109,35.645,20.996,92.285,83.008
1584600045.575,15.137,35.645,22.461,17.090,72.266
1584600045.579,-4.883,28.809,23.438,-69.336,13.672
1584600045.583,26.367,26.855,20.020,-15.137,-23.438
1584600045.587,62.500,35.645,24.414,94.727,37.598
1584600045.591,41.992,39.551,30.273,66.406,59.082
1584600045.595,-3.906,30.273,21.484,-50.293,-7.324
1584600045.599,4.883,34.668,15.137,-43.457,-4.883
1584600045.602,45.410,40.527,19.531,82.520,60.547
1584600045.606,34.668,30.762,25.391,92.285,30.762
1584600045.610,-4.395,33.203,25.391,-24.414,-20.508
1584600045.614,-0.488,36.621,23.926,-50.293,-19.531
1584600045.618,38.086,41.992,31.738,60.059,45.410
1584600045.622,42.480,50.781,34.668,110.840,35.156
1584600045.626,3.906,39.551,16.113,5.859,3.418
1584600045.630,-9.277,24.414,11.719,-60.547,26.367
1584600045.634,32.227,31.738,23.438,24.414,50.781
1584600045.638,55.176,42.480,25.391,107.422,46.387
1584600045.642,27.832,40.527,29.297,44.434,-8.301
1584600045.645,1.465,36.621,33.203,-48.340,-22.461
1584600045.649,25.391,35.156,32.227,2.441,14.648
1584600045.653,59.570,44.434,28.809,116.211,10.254
1584600045.657,37.109,40.039,21.973,90.332,51.270
1584600045.661,-8.301,27.832,20.508,-26.367,21.484
1584600045.665,-0.977,32.227,21.973,-27.344,7.812
1584600045.669,46.875,38.574,26.367,85.449,37.109
1584600045.673,55.176,33.203,23.926,93.262,-2.441
1584600045.677,18.066,28.809,21.484,-13.672,-30.762
1584600045.681,10.742,35.645,23.438,-38.574,-4.883
1584600045.685,44.434,32.715,22.461,69.336,15.625
1584600045.688,60.059,31.738,29.785,129.883,26.367
1584600045.692,21.973,31.738,27.832,44.922,48.340
1584600045.696,-4.395,26.855,21.973,-39.551,-15.137
1584600045.700,19.531,32.715,25.391,15.137,8.789
1584600045.704,47.852,38.086,23.926,103.027,83.008
1584600045.708,21.484,37.598,19.043,46.875,45.410
1584600045.712,-15.137,35.156,16.113,-57.129,56.641
1584600045.716,22.461,37.598,22.461,-4.395,66.406
1584600045.720,54.688,35.645,22.461,106.934,12.207
1584600045.724,33.203,35.156,21.973,82.031,-9.766
1584600045.727,-0.977,39.551,25.391,-20.996,15.625
1584600045.731,0.488,38.086,15.625,-30.762,36.133
1584600045.735,36.133,41.992,15.137,71.777,42.480
1584600045.739,49.805,49.805,29.297,109.863,57.129
1584600045.743,1.953,35.156,25.391,-1.465,57.617
1584600045.747,-14.648,24.902,11.719,-68.359,54.688
1584600045.751,30.273,39.062,12.207,30.273,38.086
1584600045.755,41.992,36.133,14.648,102.051,2.930
1584600045.759,7.324,23.438,18.555,23.438,-1.465
1584600045.763,-7.812,32.227,24.902,-51.758,-32.715
1584600045.767,26.367,43.457,24.902,14.160,35.645
1584600045.770,46.875,39.062,20.996,101.562,27.832
1584600045.774,19.531,30.762,19.043,52.734,-28.809
1584600045.778,-9.277,32.715,19.531,-52.734,8.301
1584600045.782,15.625,36.621,19.043,-20.508,59.570
1584600045.786,55.176,40.527,26.855,98.633,82.520
1584600045.790,41.504,30.273,34.180,90.820,40.039
1584600045.794,0.977,34.668,29.297,-19.043,24.414
1584600045.798,7.812,48.340,27.832,-42.969,55.176
1584600045.802,42.480,39.551,26.367,65.918,66.406
1584600045.806,40.039,37.109,23.926,100.098,62.988
1584600045.810,6.836,38.574,31.738,-4.883,37.598
1584600045.813,-5.859,28.320,33.691,-58.105,63.965
1584600045.817,32.227,27.832,25.391,30.762,25.879
1584600045.821,64.941,37.109,26.367,110.840,19.531
1584600045.825,30.762,30.762,32.715,36.133,55.176
1584600045.829,-6.348,24.414,27.832,-57.617,26.367
1584600045.833,21.973,26.855,20.996,1.465,21.973
1584600045.837,51.270,34.668,26.855,104.492,59.082
1584600045.841,26.367,39.551,28.809,72.754,112.305
1584600045.845,-7.812,34.668,23.438,-41.016,87.402
1584600045.849,11.230,32.227,21.484,-32.715,70.312
1584600045.852,46.387,39.551,26.367,87.891,67.871
1584600045.856,33.691,36.621,28.809,99.609,-17.090
1584600045.860,-5.859,25.879,28.320,-15.137,-61.035
1584600045.864,-1.953,30.762,30.762,-40.039,-35.156
1584600045.868,33.691,39.062,27.832,62.012,32.227
1584600045.872,33.203,26.855,21.484,102.051,67.871
1584600045.876,0.977,18.555,15.137,11.230,22.461
1584600045.880,-4.395,27.344,15.137,-45.898,2.930
1584600045.884,35.156,42.480,22.461,40.527,0.977
1584600045.888,52.246,44.922,24.414,121.094,76.172
1584600045.892,21.484,29.785,26.855,59.082,88.867
1584600045.895,-1.465,25.879,26.855,-45.410,44.922
1584600045.899,18.555,33.691,22.461,-6.836,29.785
1584600045.903,54.199,37.598,26.855,105.469,27.832
1584600045.907,44.434,31.250,28.320,77.637,30.762
1584600045.911,0.000,18.555,24.902,-41.504,0.977
1584600045.915,9.766,22.949,24.414,-38.574,-4.883
1584600045.919,56.152,32.227,29.785,84.473,7.812
1584600045.923,50.781,33.203,34.180,97.656,42.480
1584600045.927,10.254,30.273,27.832,-18.066,89.355
1584600045.931,9.277,24.902,26.367,-61.035,71.289
1584600045.935,52.246,23.926,34.668,46.875,0.000
1584600045.938,57.617,20.508,33.203,107.422,2.441
1584600045.942,5.371,17.578,25.879,13.672,29.785
1584600045.946,-13.672,27.832,24.414,-47.852,50.293
1584600045.950,27.344,43.945,36.133,31.738,8.789
1584600045.954,45.410,38.574,38.574,108.887,10.742
1584600045.958,12.207,27.344,31.738,38.574,24.902
1584600045.962,-12.207,30.762,28.809,-65.918,-20.020
1584600045.966,9.277,37.109,28.809,-18.555,57.617
1584600045.970,41.992,35.645,27.832,90.820,52.734
1584600045.974,36.133,33.203,34.180,70.312,10.742
1584600045.977,6.348,32.715,38.086,-36.621,-7.324
1584600045.981,6.836,29.297,28.809,-38.086,6.348
1584600045.985,41.016,34.180,31.250,81.543,65.918
1584600045.989,43.457,39.062,33.691,104.980,78.613
1584600045.993,-7.324,37.109,22.949,-7.324,29.297
1584600045.997,-18.066,32.227,15.137,-61.523,39.551
1584600046.001,30.762,34.668,18.555,32.715,12.695
1584600046.005,40.527,37.598,18.555,102.539,34.180
1584600046.009,3.418,30.273,15.137,13.184,55.664
1584600046.013,-9.766,21.484,17.578,-62.988,10.742
1584600046.017,26.367,27.832,24.902,15.625,32.227
1584600046.020,58.105,43.945,31.250,113.281,62.500
1584600046.024,33.691,41.504,26.367,62.988,71.777
1584600046.028,-2.930,33.203,20.996,-41.016,73.242
1584600046.032,12.207,34.180,19.531,-11.719,34.180
1584600046.036,41.016,35.645,17.090,93.262,28.320
1584600046.040,25.879,39.551,18.555,82.520,33.203
1584600046.044,-6.348,35.156,21.973,-28.320,52.246
1584600046.048,1.465,30.273,21.484,-39.062,54.688
1584600046.052,47.363,34.668,23.438,72.754,42.480
1584600046.056,50.293,33.691,21.973,102.539,59.082
1584600046.060,8.789,31.250,18.066,1.465,61.035
1584600046.063,-0.977,31.738,17.578,-67.383,37.598
1584600046.067,41.016,38.574,24.902,26.367,17.578
1584600046.071,57.129,42.480,30.762,113.281,-2.441
1584600046.075,15.625,34.668,26.855,35.156,71.289
1584600046.079,-16.113,24.414,19.531,-60.547,62.988
1584600046.083,18.066,28.320,19.043,0.977,-16.602
1584600046.087,51.270,44.434,23.438,107.422,11.719
1584600046.091,24.414,36.133,21.484,61.035,32.227
1584600046.095,-8.301,21.484,19.531,-46.875,-28.320
1584600046.099,13.672,27.344,22.949,-24.414,-59.082
1584600046.102,51.270,39.062,24.902,93.750,-3.906
1584600046.106,34.668,39.062,24.414,92.773,32.227
1584600046.110,-3.418,31.250,22.949,-26.855,20.996
1584600046.114,5.859,35.156,21.973,-35.156,45.410
1584600046.118,48.340,42.480,23.926,83.008,24.414
1584600046.122,53.223,38.086,26.367,107.910,9.277
1584600046.126,12.695,25.391,23.438,1.465,-3.418
1584600046.130,-2.441,22.461,17.578,-60.059,38.086
1584600046.134,33.691,26.855,21.973,26.367,77.148
1584600046.138,59.570,36.133,25.391,112.305,16.602
1584600046.142,27.344,36.133,20.996,40.039,0.977
1584600046.145,-4.883,29.785,20.996,-58.594,60.547
1584600046.149,25.391,45.410,29.297,-0.977,53.711
1584600046.153,60.547,53.223,35.645,104.980,83.984
1584600046.157,41.016,38.574,30.762,70.801,52.734
1584600046.161,-7.812,23.926,18.066,-48.340,-20.020
1584600046.165,4.395,25.879,18.066,-41.016,31.250
1584600046.169,49.805,34.180,32.227,85.938,40.527
1584600046.173,39.551,31.738,33.691,97.168,23.926
1584600046.177,-3.906,23.926,26.367,-14.648,19.043
1584600046.181,0.000,27.832,24.414,-46.875,15.137
1584600046.185,43.457,40.039,30.762,54.688,48.828
1584600046.188,56.641,40.527,32.715,109.375,62.012
1584600046.192,20.996,29.297,27.832,14.160,46.875
1584600046.196,-7.812,26.367,28.320,-62.988,-4.395
1584600046.200,24.902,28.809,33.203,19.531,4.883
1584600046.204,46.875,30.762,33.691,114.746,-11.719
1584600046.208,12.207,23.926,30.273,50.293,-50.781
1584600046.212,-12.207,21.973,31.250,-46.387,22.949
1584600046.216,17.578,25.879,32.227,-1.465,36.133
1584600046.220,50.293,28.320,35.645,106.934,-4.395
1584600046.224,31.738,34.668,36.621,84.961,-0.977
1584600046.227,-6.836,26.855,32.715,-24.902,-10.254
1584600046.231,0.977,27.832,30.762,-29.785,3.418
1584600046.235,42.969,38.086,32.715,83.496,56.152
1584600046.239,42.969,30.762,33.203,103.516,16.602
1584600046.243,2.930,26.367,32.227,-10.254,-33.691
1584600046.247,-2.441,30.762,28.320,-51.270,20.996
1584600046.251,42.480,29.785,29.297,48.340,98.145
1584600046.255,52.734,30.273,34.668,109.863,64.453
1584600046.259,7.812,21.973,30.762,27.344,8.301
1584600046.263,-11.719,21.973,25.391,-56.152,29.785
1584600046.267,23.438,32.715,31.250,4.883,20.996
1584600046.270,48.340,34.668,36.133,102.051,36.133
1584600046.274,22.461,31.738,34.180,55.176,22.949
1584600046.278,-7.812,21.973,35.156,-48.340,32.715
1584600046.282,10.742,23.438,34.668,-13.672,46.875
1584600046.286,42.480,27.832,31.250,100.098,3.418
1584600046.290,32.227,28.320,29.297,88.379,-14.160
1584600046.294,4.883,33.691,34.668,-13.184,12.207
1584600046.298,9.766,27.832,31.250,-26.367,28.809
1584600046.302,42.480,25.391,27.832,72.754,-28.320
1584600046.306,47.852,33.691,31.250,97.168,-21.973
1584600046.310,16.602,34.180,23.438,-2.930,7.812
1584600046.313,20.508,29.785,15.137,-38.086,25.879
1584600046.317,65.430,34.180,20.020,59.082,22.949
1584600046.321,52.734,28.809,31.738,112.305,0.488
1584600046.325,-1.953,20.508,33.203,23.438,23.926
1584600046.329,-18.555,23.438,31.250,-57.617,27.832
1584600046.333,8.789,24.902,34.668,0.977,12.695
1584600046.337,37.109,24.902,38.574,95.703,35.645
1584600046.341,13.672,13.672,36.621,55.176,25.879
1584600046.345,-23.438,4.395,37.598,-44.434,0.977
1584600046.349,-15.137,8.301,38.086,-37.109,6.836
1584600046.352,12.207,14.648,37.109,63.965,33.203
1584600046.356,4.395,15.137,37.598,70.801,61.523
1584600046.360,-31.738,11.719,33.691,-41.992,23.926
1584600046.364,-24.902,10.742,30.762,-63.477,-14.648
1584600046.368,20.020,11.719,36.133,53.223,-3.418
1584600046.372,24.902,16.113,40.527,105.957,26.367
1584600046.376,-15.625,17.578,37.598,4.883,27.344
1584600046.380,-25.879,17.090,36.621,-60.547,31.250
1584600046.384,18.555,20.996,40.039,35.156,43.457
1584600046.388,39.551,21.484,36.621,110.840,28.320
1584600046.392,12.695,18.066,34.668,37.109,61.523
1584600046.395,-10.742,14.648,37.109,-49.805,46.387
1584600046.399,8.789,17.090,31.250,-4.883,17.578
1584600046.403,36.621,19.043,22.461,96.680,83.008
1584600046.407,21.973,18.066,24.414,69.336,43.945
1584600046.411,-8.789,19.043,29.785,-35.645,12.695
1584600046.415,5.859,18.066,30.273,-20.508,9.766
1584600046.419,42.969,17.090,30.273,91.309,-19.043
1584600046.423,30.762,16.113,26.855,99.609,5.859
1584600046.427,-8.301,16.113,24.414,-13.672,-0.977
1584600046.431,-4.883,18.555,28.320,-44.922,-0.977
1584600046.435,34.668,23.438,30.762,62.988,89.355
1584600046.438,42.480,22.949,33.203,120.605,85.449
1584600046.442,10.254,26.855,34.668,21.484,36.621
1584600046.446,0.000,34.180,34.668,-49.805,13.672
1584600046.450,29.297,33.203,34.668,30.273,8.789
1584600046.454,39.062,25.879,29.785,106.934,19.043
1584600046.458,8.789,21.484,26.367,49.316,14.160
1584600046.462,-11.230,23.438,27.344,-48.340,10.742
1584600046.466,23.438,30.762,30.762,-5.859,24.902
1584600046.470,57.617,32.227,36.621,109.375,40.039
1584600046.474,45.898,31.738,39.062,93.750,58.105
1584600046.477,7.324,33.203,36.133,-22.461,10.254
1584600046.481,8.301,25.879,28.320,-29.297,17.090
1584600046.485,52.734,31.738,31.738,83.984,33.203
1584600046.489,47.852,32.715,28.809,100.098,-5.371
1584600046.493,4.395,29.297,23.438,-11.230,44.922
1584600046.497,4.395,33.691,24.414,-59.570,61.035
1584600046.501,42.969,37.598,26.855,44.434,29.785
1584600046.505,47.852,38.574,32.715,116.211,10.742
1584600046.509,11.719,34.668,36.133,30.273,-8.789
1584600046.513,-2.441,29.785,37.598,-50.293,56.641
1584600046.517,29.785,30.273,36.621,25.879,30.762
1584600046.520,58.594,39.062,41.504,127.930,-41.992
1584600046.524,24.414,28.809,42.969,69.824,-31.250
1584600046.528,-15.625,12.695,33.691,-44.922,29.785
1584600046.532,12.695,25.391,33.691,-6.348,72.266
1584600046.536,47.852,38.574,30.762,103.027,33.203
1584600046.540,28.809,40.527,20.508,79.590,18.066
1584600046.544,-14.648,31.250,17.578,-36.133,14.648
1584600046.548,0.488,29.785,26.855,-37.598,32.227
1584600046.552,43.945,36.133,39.062,76.660,0.977
1584600046.556,39.062,31.738,37.109,104.492,8.301
1584600046.560,-0.977,18.555,33.203,-2.441,50.293
1584600046.563,-7.812,12.695,30.762,-54.688,16.113
1584600046.567,42.969,24.414,34.668,55.176,-17.090
1584600046.571,54.688,22.949,39.062,130.371,16.602
1584600046.575,14.648,24.902,37.109,32.715,20.508
1584600046.579,1.953,39.551,29.785,-55.664,33.203
1584600046.583,35.156,39.062,31.738,15.137,40.039
1584600046.587,53.223,27.832,33.691,113.281,0.000
1584600046.591,21.484,18.066,26.855,61.523,-6.836
1584600046.595,-12.695,18.555,20.996,-48.340,5.859
1584600046.599,12.207,27.344,26.367,-16.113,23.926
1584600046.602,51.270,27.832,32.715,98.633,32.715
1584600046.606,39.062,25.879,19.531,92.285,15.625
1584600046.610,3.418,28.320,21.484,-15.137,57.129
1584600046.614,7.812,31.738,25.879,-47.852,58.594
1584600046.618,46.875,40.039,25.879,52.246,3.906
1584600046.622,44.434,38.574,26.367,105.469,4.395
1584600046.626,2.441,24.902,21.484,14.648,9.277
1584600046.630,-6.836,16.113,24.414,-50.781,31.250
1584600046.634,36.621,18.066,33.691,38.574,61.035
1584600046.638,54.688,26.367,30.273,124.023,50.781
1584600046.642,23.926,34.668,29.785,51.270,28.809
1584600046.645,-6.348,33.691,34.668,-50.781,32.227
1584600046.649,14.648,30.762,27.344,-1.953,22.949
1584600046.653,50.781,34.668,24.414,104.980,41.992
1584600046.657,27.832,31.250,32.227,71.777,49.316
1584600046.661,-10.742,27.344,36.621,-34.668,-5.859
1584600046.665,2.441,29.297,32.227,-29.785,-1.465
1584600046.669,38.086,31.250,29.785,85.449,44.434
1584600046.673,29.297,21.973,26.855,92.773,20.020
1584600046.677,-8.789,16.602,21.973,-34.668,19.043
1584600046.681,14.160,37.109,23.926,-50.293,13.672
1584600046.685,76.172,42.480,20.996,83.008,4.395
1584600046.688,55.176,23.926,24.902,115.234,66.406
1584600046.692,-15.137,15.137,38.574,-6.348,68.848
1584600046.696,-23.438,29.785,41.504,-66.406,30.273
1584600046.700,5.371,35.645,42.969,14.648,24.414
1584600046.704,8.789,22.949,41.016,83.496,4.395
1584600046.708,-24.414,15.625,37.109,15.625,30.762
1584600046.712,-55.664,19.531,34.180,-84.961,77.637
1584600046.716,-46.387,20.508,39.551,-52.734,26.367
1584600046.720,-23.438,20.508,59.082,59.570,14.160
1584600046.724,-55.664,12.695,55.664,10.254,12.695
1584600046.727,-112.793,6.348,43.945,-124.512,77.637
1584600046.731,-100.586,11.230,54.688,-116.211,115.234
1584600046.735,-63.965,10.742,65.430,-8.301,72.754
1584600046.739,-78.125,-0.977,60.547,1.953,78.613
1584600046.743,-124.512,-8.789,60.547,-108.398,51.270
1584600046.747,-139.160,0.000,70.312,-147.949,46.875
1584600046.751,-110.840,-3.418,61.035,-56.152,66.895
1584600046.755,-107.910,-17.090,55.664,-14.648,10.254
1584600046.759,-137.207,-17.578,73.730,-96.680,-34.180
1584600046.763,-156.250,-18.066,79.590,-163.574,7.812
1584600046.767,-131.348,-21.973,70.801,-96.191,48.828
1584600046.770,-91.309,-19.531,68.848,-2.441,83.008
1584600046.774,-104.492,-16.602,70.801,-46.387,48.828
1584600046.778,-136.230,-12.695,62.500,-140.625,14.160
1584600046.782,-111.816,-11.719,64.453,-108.887,27.832
1584600046.786,-70.801,-17.090,67.871,5.371,21.484
1584600046.790,-69.824,-17.578,62.988,5.371,-4.883
1584600046.794,-98.145,-14.648,68.848,-93.262,9.277
1584600046.798,-73.730,-11.230,79.102,-86.914,13.184
1584600046.802,-15.625,-10.742,70.801,40.039,-13.672
1584600046.806,-2.930,-6.836,57.617,86.426,10.742
1584600046.810,-32.715,-5.371,65.430,-5.859,14.648
1584600046.813,-41.504,-13.184,64.941,-62.500,28.320
1584600046.817,7.812,-12.695,62.012,48.340,47.852
1584600046.821,26.855,-6.836,52.246,128.906,38.086
1584600046.825,-17.090,-6.348,40.039,26.367,38.086
1584600046.829,-42.969,-14.160,31.250,-71.777,56.641
1584600046.833,5.859,-8.789,31.738,6.836,53.711
1584600046.837,46.387,-1.465,36.133,124.512,74.707
1584600046.841,39.062,4.395,33.203,89.844,58.105
1584600046.845,19.531,0.000,30.762,-9.277,35.156
1584600046.849,38.086,-1.465,29.785,23.926,55.664
1584600046.852,79.590,11.230,39.062,138.184,11.230
1584600046.856,76.660,17.578,42.969,121.094,-41.992
1584600046.860,41.016,25.391,39.062,14.160,-4.883
1584600046.864,40.527,17.578,34.180,11.230,-9.277
1584600046.868,69.336,9.277,34.668,112.305,13.184
1584600046.872,74.219,17.578,36.133,145.996,20.020
1584600046.876,28.320,8.789,15.137,40.039,-6.836
1584600046.880,18.066,3.418,15.137,-22.949,6.348
1584600046.884,68.848,12.207,21.973,68.359,41.992
1584600046.888,80.566,11.719,15.137,147.949,17.090
1584600046.892,50.781,12.695,26.367,85.938,14.648
1584600046.895,26.367,11.230,33.691,-2.441,18.555
1584600046.899,53.223,19.043,41.504,53.711,3.418
1584600046.903,73.242,22.949,33.691,142.090,21.973
1584600046.907,56.641,19.043,15.137,103.027,-23.926
1584600046.911,40.527,25.879,22.461,12.695,-22.949
1584600046.915,43.457,20.996,23.926,15.625,18.066
1584600046.919,72.754,17.578,20.996,126.953,-2.930
1584600046.923,77.637,26.367,27.832,150.391,-33.691
1584600046.927,41.504,18.555,24.414,32.227,10.254
1584600046.931,28.320,10.742,19.531,-17.578,19.531
1584600046.935,63.477,20.020,18.066,87.891,21.973
1584600046.938,82.031,33.691,22.461,152.344,36.621
1584600046.942,36.133,25.391,14.160,49.316,52.246
1584600046.946,7.324,7.324,6.836,-43.457,73.730
1584600046.950,54.688,15.625,24.902,34.668,20.020
1584600046.954,86.426,25.391,31.250,137.695,19.531
1584600046.958,59.570,26.855,26.367,81.055,54.199
1584600046.962,31.738,26.367,34.180,-15.625,41.992
1584600046.966,52.246,23.926,28.320,19.043,66.406
1584600046.970,80.566,22.461,18.555,123.535,75.195
1584600046.974,60.547,14.160,16.602,104.004,27.344
1584600046.977,19.043,6.348,13.184,-19.531,40.039
1584600046.981,40.039,18.555,20.020,-11.230,12.695
1584600046.985,90.820,35.156,32.715,122.070,4.395
1584600046.989,83.008,27.344,28.320,143.066,41.992
1584600046.993,37.109,15.625,23.438,22.461,83.984
1584600046.997,32.715,28.320,26.855,-21.973,68.359
1584600047.001,69.336,36.621,34.668,79.590,22.949
1584600047.005,75.684,30.762,36.621,136.719,15.137
1584600047.009,35.156,21.973,23.438,38.086,20.996
1584600047.013,12.695,19.043,14.648,-35.156,50.781
1584600047.017,48.828,13.672,19.531,43.945,41.016
1584600047.020,81.055,24.414,32.715,138.672,42.480
1584600047.024,46.387,35.645,32.715,84.961,33.203
1584600047.028,8.789,26.855,24.414,-30.273,8.301
1584600047.032,30.273,19.531,17.090,4.395,51.758
1584600047.036,60.059,18.555,11.230,109.863,42.969
1584600047.040,59.570,22.461,23.438,96.191,-25.391
1584600047.044,20.996,22.949,29.297,-12.207,-1.465
1584600047.048,16.602,17.090,22.461,-24.902,15.137
1584600047.052,58.594,10.742,24.902,83.008,17.578
1584600047.056,65.918,17.090,29.785,114.746,0.488
1584600047.060,35.156,27.344,24.902,20.508,7.812
1584600047.063,21.484,26.855,20.020,-35.156,3.418
1584600047.067,64.453,40.039,37.109,66.895,-19.043
1584600047.071,80.078,38.086,36.133,133.301,29.785
1584600047.075,37.598,23.438,19.043,38.574,73.242
1584600047.079,17.578,17.090,17.578,-40.527,55.176
1584600047.083,39.062,10.254,20.508,23.438,-2.441
1584600047.087,60.059,21.484,24.902,113.281,37.598
1584600047.091,34.180,28.320,25.391,63.965,41.992
1584600047.095,1.465,27.832,20.508,-38.086,26.855
1584600047.099,22.949,31.738,23.438,-15.137,52.246
1584600047.102,62.988,33.691,30.762,98.633,20.020
1584600047.106,57.617,28.809,26.367,102.539,19.043
1584600047.110,10.742,19.043,15.625,-12.207,33.691
1584600047.114,10.742,32.715,17.578,-37.109,25.879
1584600047.118,46.387,36.133,19.531,69.336,37.109
1584600047.122,45.410,25.391,20.020,102.051,79.102
1584600047.126,18.066,27.344,25.879,7.812,49.316
1584600047.130,9.277,29.785,22.461,-45.898,28.320
1584600047.134,41.016,26.855,18.066,35.645,54.688
1584600047.138,63.477,23.926,31.738,120.605,34.668
1584600047.142,26.855,16.113,30.762,37.598,37.598
1584600047.145,-6.836,14.160,24.414,-62.500,30.273
1584600047.149,37.598,15.137,32.715,21.484,29.785
1584600047.153,71.289,20.508,41.016,132.812,65.918
1584600047.157,27.344,31.250,32.715,67.871,45.410
1584600047.161,-18.555,31.250,25.879,-45.410,4.883
1584600047.165,-1.465,29.785,20.508,-32.227,38.086
1584600047.169,48.340,36.621,26.367,77.637,72.266
1584600047.173,45.410,35.156,25.391,88.379,12.207
1584600047.177,0.488,21.484,13.184,-23.926,41.504
1584600047.181,17.090,21.484,18.066,-40.527,81.055
1584600047.185,50.293,14.648,27.344,62.012,16.113
1584600047.188,28.809,11.719,23.438,87.402,-1.953
1584600047.192,-8.789,21.484,20.996,-10.254,-20.508
1584600047.196,-16.602,8.789,30.762,-63.477,-10.742
1584600047.200,18.555,13.672,29.297,25.391,37.109
1584600047.204,37.598,17.578,19.043,105.957,12.207
1584600047.208,16.602,18.555,32.227,48.340,6.836
1584600047.212,-3.418,31.738,37.109,-29.297,58.594
1584600047.216,19.531,25.391,31.738,12.695,58.105
1584600047.220,41.992,25.391,36.621,94.727,10.742
1584600047.224,17.578,21.484,24.414,55.664,-3.418
1584600047.227,-12.207,13.184,16.113,-46.387,-29.297
1584600047.231,9.766,25.879,28.320,-30.762,5.371
1584600047.235,53.223,36.133,34.668,89.844,51.270
1584600047.239,44.922,24.902,20.996,102.539,28.809
1584600047.243,-10.254,9.766,20.996,-19.043,8.789
1584600047.247,-12.207,9.277,40.039,-60.059,44.434
1584600047.251,44.922,23.926,49.316,62.012,68.359
1584600047.255,54.199,25.391,33.691,127.441,48.340
1584600047.259,17.090,23.438,22.949,25.879,23.438
1584600047.263,-1.953,26.855,29.297,-54.199,1.465
1584600047.267,20.508,23.438,24.902,16.602,-20.508
1584600047.270,47.363,25.391,7.324,100.586,-1.953
1584600047.274,18.555,23.438,6.836,41.992,-1.953
1584600047.278,-11.719,24.414,29.297,-63.477,15.625
1584600047.282,34.668,30.762,49.805,-4.883,48.828
1584600047.286,65.918,32.715,38.086,107.910,39.062
1584600047.290,24.902,15.137,6.836,61.523,39.062
1584600047.294,-7.324,24.414,6.348,-43.457,-16.113
1584600047.298,11.719,42.969,7.324,-33.691,1.953
1584600047.302,59.570,46.875,25.879,86.426,58.105
1584600047.306,57.129,22.461,39.062,112.305,19.531
1584600047.310,6.348,0.488,34.180,-7.812,-16.113
1584600047.313,-17.090,15.625,33.691,-64.453,-10.254
1584600047.317,4.395,19.043,15.137,19.043,-1.953
1584600047.321,25.391,20.508,11.230,84.961,30.273
1584600047.325,7.324,17.578,13.672,20.020,58.594
1584600047.329,-11.719,18.555,18.555,-60.059,37.109
1584600047.333,12.695,8.301,41.016,1.465,-6.348
1584600047.337,45.898,12.695,45.898,102.051,-18.066
1584600047.341,29.297,21.484,35.156,56.152,-42.969
1584600047.345,-12.695,-5.859,28.320,-53.223,-34.668
1584600047.349,6.836,9.766,23.438,-27.832,21.973
1584600047.352,46.387,40.527,25.391,89.844,45.898
1584600047.356,17.090,23.926,22.949,71.777,69.824
1584600047.360,-24.902,6.836,22.949,-53.711,30.273
1584600047.364,-11.719,5.371,26.367,-62.988,28.320
1584600047.368,35.156,20.996,41.992,60.547,96.191
1584600047.372,39.551,34.668,39.062,100.098,28.809
1584600047.376,2.930,16.113,23.926,-1.465,17.578
1584600047.380,-14.160,-6.836,25.879,-64.453,70.312
1584600047.384,26.367,18.066,36.621,40.527,58.105
1584600047.388,45.410,30.762,35.645,114.258,65.430
1584600047.392,8.301,18.555,27.832,24.902,33.203
1584600047.395,-13.184,16.602,26.855,-55.176,1.953
1584600047.399,19.043,21.484,27.344,0.488,-1.465
1584600047.403,61.523,27.344,37.598,106.934,17.090
1584600047.407,48.340,22.461,39.062,78.613,48.828
1584600047.411,2.441,17.090,24.902,-39.551,14.648
1584600047.415,11.719,16.113,26.367,-39.062,49.316
1584600047.419,54.199,20.508,26.855,78.613,59.570
1584600047.423,49.805,29.297,28.809,101.562,48.340
1584600047.427,-0.488,26.855,25.391,-25.879,26.855
1584600047.431,-1.465,19.531,20.020,-60.547,10.742
1584600047.435,37.598,22.461,27.344,56.641,26.367
1584600047.438,22.949,16.602,26.855,84.473,39.551
1584600047.442,-7.324,17.090,29.297,-9.277,24.902
1584600047.446,-5.859,21.484,31.738,-61.035,-44.434
1584600047.450,30.762,19.043,25.391,21.484,-31.738
1584600047.454,49.316,23.926,32.715,108.398,30.273
1584600047.458,26.367,32.715,40.527,42.480,19.043
1584600047.462,8.301,23.926,36.621,-48.340,1.953
1584600047.466,19.531,14.648,30.273,-6.348,-21.484
1584600047.470,44.434,25.391,27.344,88.379,-13.184
1584600047.474,35.156,24.414,26.855,61.035,-32.715
1584600047.477,-12.207,22.461,26.855,-46.387,1.465
1584600047.481,-1.465,17.578,35.156,-37.598,23.438
1584600047.485,45.410,18.555,36.621,77.637,2.930
1584600047.489,37.598,28.809,33.203,97.168,35.156
1584600047.493,-8.301,20.996,36.133,-16.113,64.941
1584600047.497,-12.207,17.578,25.879,-56.641,77.148
1584600047.501,29.785,18.555,23.438,55.176,73.730
1584600047.505,43.945,14.160,31.738,112.793,54.688
1584600047.509,16.602,17.090,31.738,21.973,50.781
1584600047.513,0.977,29.297,33.691,-45.898,49.316
1584600047.517,27.832,33.203,31.250,19.043,27.344
1584600047.520,46.387,27.832,24.414,103.027,53.223
1584600047.524,28.809,29.785,25.879,53.223,72.266
1584600047.528,4.883,26.367,31.250,-42.969,5.859
1584600047.532,24.902,23.926,25.391,-0.488,41.016
1584600047.536,60.059,31.250,19.531,108.398,70.801
1584600047.540,44.434,34.668,25.879,91.797,26.855
1584600047.544,-6.836,24.414,21.973,-32.227,73.242
1584600047.548,3.418,21.973,28.809,-43.457,49.805
1584600047.552,52.246,29.785,36.621,83.496,-9.277
1584600047.556,38.574,22.949,20.996,99.609,29.297
1584600047.560,5.859,23.926,22.461,-4.395,27.832
1584600047.563,6.348,29.785,32.715,-43.457,34.668
1584600047.567,32.715,37.109,33.691,43.457,34.180
1584600047.571,46.387,35.645,31.250,109.863,24.902
1584600047.575,12.207,26.855,25.391,25.391,9.277
1584600047.579,-10.254,25.391,29.297,-55.176,-30.273
1584600047.583,20.508,29.785,30.762,17.578,-17.090
1584600047.587,46.875,34.180,27.832,112.305,22.461
1584600047.591,22.949,29.785,25.879,64.941,42.480
1584600047.595,-9.277,20.508,27.344,-38.574,91.797
1584600047.599,18.066,23.438,38.086,-12.207,35.156
1584600047.602,52.246,27.344,30.762,95.703,26.367
1584600047.606,30.273,25.391,21.973,83.984,70.312
1584600047.610,-7.324,16.113,24.414,-35.645,96.191
1584600047.614,1.465,16.113,27.832,-50.781,96.191
1584600047.618,41.016,30.273,30.273,63.965,0.977
1584600047.622,48.340,26.855,31.738,112.305,18.555
1584600047.626,13.672,17.578,29.297,10.254,23.438
1584600047.630,-2.441,26.367,24.902,-62.500,20.508
1584600047.634,43.945,37.109,30.273,44.434,110.352
1584600047.638,57.129,27.344,33.203,124.023,77.148
1584600047.642,18.066,23.438,28.809,42.969,38.086
1584600047.645,2.930,22.461,28.320,-49.316,52.246
1584600047.649,25.879,20.020,25.879,-2.930,29.785
1584600047.653,58.594,26.855,23.438,95.215,41.016
1584600047.657,44.922,20.996,30.762,70.801,-0.977
1584600047.661,0.977,21.973,28.809,-33.203,-0.977
1584600047.665,10.254,28.809,31.250,-27.344,33.203
1584600047.669,46.875,29.297,32.227,84.473,14.648
1584600047.673,38.574,26.855,24.902,87.402,29.785
1584600047.677,4.395,24.902,24.414,-23.438,-21.484
1584600047.681,9.277,26.855,17.090,-50.293,-45.410
1584600047.685,57.129,28.320,23.438,64.453,2.441
1584600047.688,60.059,27.832,35.156,120.117,-41.504
1584600047.692,18.555,32.715,36.133,18.555,-22.949
1584600047.696,-4.395,28.320,32.715,-62.012,32.715
1584600047.700,30.273,31.250,34.668,21.973,-22.949
1584600047.704,62.988,32.227,39.551,123.047,-2.441
1584600047.708,22.949,16.602,23.926,52.246,83.496
1584600047.712,-4.883,23.438,10.254,-49.316,90.332
1584600047.716,33.691,24.414,26.855,8.789,38.574
1584600047.720,67.871,28.320,44.434,118.652,0.000
1584600047.724,45.898,46.875,43.945,83.984,27.344
1584600047.727,-3.418,31.738,30.762,-38.574,22.461
1584600047.731,2.930,22.949,25.391,-40.527,34.180
1584600047.735,48.340,33.691,30.273,78.125,41.504
1584600047.739,47.852,25.391,21.484,96.680,21.973
1584600047.743,6.348,23.438,19.531,-19.043,19.531
1584600047.747,8.301,27.344,33.691,-56.641,26.855
1584600047.751,57.129,39.551,42.480,56.152,69.336
1584600047.755,55.176,42.969,37.109,115.234,62.988
1584600047.759,14.160,36.621,31.250,25.391,55.176
1584600047.763,5.371,38.086,31.738,-53.223,98.633
1584600047.767,35.156,33.203,32.715,18.066,79.590
1584600047.770,60.059,31.738,40.527,111.328,48.828
1584600047.774,32.227,33.691,38.086,56.152,17.090
1584600047.778,-8.301,29.297,20.508,-51.758,25.391
1584600047.782,14.160,27.832,21.973,-10.742,72.266
1584600047.786,51.758,30.762,25.879,102.051,55.176
1584600047.790,37.109,35.156,26.367,80.078,62.988
1584600047.794,5.371,28.809,44.434,-26.855,66.895
1584600047.798,12.207,27.832,41.504,-40.527,-7.812
1584600047.802,41.504,35.156,36.133,57.129,1.953
1584600047.806,34.180,38.086,38.086,83.008,27.832
1584600047.810,-4.395,34.180,30.273,-19.043,18.555
1584600047.813,-11.230,20.996,20.508,-60.547,22.949
1584600047.817,26.855,29.785,26.855,39.062,24.414
1584600047.821,51.758,48.828,37.109,104.004,9.766
1584600047.825,9.766,32.227,25.879,38.086,22.949
1584600047.829,-21.973,20.996,22.461,-53.711,47.363
1584600047.833,21.484,32.227,31.738,-4.395,50.293
1584600047.837,56.641,34.668,40.039,105.957,52.246
1584600047.841,23.926,36.621,47.363,52.246,73.730
1584600047.845,-33.203,22.461,37.598,-73.730,51.758
1584600047.849,-21.484,20.508,38.574,-57.129,-11.719
1584600047.852,20.508,34.180,53.711,60.547,-17.090
1584600047.856,-4.395,22.949,49.805,48.340,19.531
1584600047.860,-57.129,10.254,52.734,-74.707,34.180
1584600047.864,-57.617,6.348,58.105,-93.750,30.273
1584600047.868,-18.555,10.254,55.176,14.160,10.742
1584600047.872,-20.508,12.695,61.035,51.758,13.672
1584600047.876,-75.195,-2.930,61.523,-62.988,55.664
1584600047.880,-91.309,-8.301,61.035,-114.746,49.316
1584600047.884,-57.617,-0.488,65.430,-25.391,-8.301
1584600047.888,-41.504,6.348,71.289,44.434,28.320
1584600047.892,-64.941,6.836,74.219,-27.832,34.668
1584600047.895,-93.262,3.418,68.848,-129.395,12.695
1584600047.899,-53.711,6.836,71.289,-61.523,-16.602
1584600047.903,-12.207,5.371,69.824,52.246,-47.363
1584600047.907,-40.039,-4.883,63.477,16.602,45.410
1584600047.911,-69.336,-7.324,60.547,-79.590,22.461
1584600047.915,-36.621,3.906,55.176,-51.270,-66.406
1584600047.919,17.090,16.113,58.594,74.707,-31.738
1584600047.923,16.602,13.672,44.922,84.961,-16.602
1584600047.927,-20.508,12.207,30.762,-31.738,3.418
1584600047.931,-11.230,16.113,35.156,-47.363,6.348
1584600047.935,39.062,24.414,41.504,57.617,5.371
1584600047.938,59.082,31.250,51.270,112.305,12.207
1584600047.942,17.090,20.020,44.922,26.367,9.766
1584600047.946,-1.953,8.789,25.879,-51.758,-9.277
1584600047.950,47.363,15.137,27.832,36.133,-30.273
1584600047.954,77.148,39.062,25.391,140.625,3.906
1584600047.958,56.152,45.898,2.930,78.125,41.992
1584600047.962,22.461,41.992,18.555,-25.391,29.297
1584600047.966,52.734,45.898,44.922,25.879,22.461
1584600047.970,86.914,40.039,28.320,128.418,48.828
1584600047.974,57.617,27.344,6.348,95.703,-4.395
1584600047.977,13.184,16.602,11.230,-18.066,-60.059
1584600047.981,35.156,27.832,25.391,-7.324,-10.742
1584600047.985,84.473,45.410,32.227,111.328,50.293
1584600047.989,71.777,39.551,20.996,121.582,34.668
1584600047.993,36.133,27.832,16.113,18.066,18.555
1584600047.997,37.598,25.391,9.766,-9.277,41.992
1584600048.001,82.031,39.551,1.953,97.168,23.926
1584600048.005,86.426,38.574,11.230,140.625,47.852
1584600048.009,41.504,20.020,31.250,40.527,30.762
1584600048.013,25.879,28.320,36.133,-27.832,8.789
1584600048.017,53.711,32.227,27.832,43.457,51.270
1584600048.020,72.754,27.344,23.926,129.395,31.738
1584600048.024,52.734,30.273,16.602,81.543,33.691
1584600048.028,26.855,32.715,20.996,-15.137,51.758
1584600048.032,49.316,37.109,27.344,17.090,52.246
1584600048.036,84.473,39.551,24.414,122.070,55.664
1584600048.040,67.871,30.762,24.414,105.469,59.082
1584600048.044,30.762,24.414,28.809,-3.906,31.738
1584600048.048,41.504,29.785,24.414,-10.742,8.301
1584600048.052,76.172,34.180,23.926,97.656,-11.719
1584600048.056,70.801,29.297,18.555,126.953,-44.434
1584600048.060,29.785,25.879,15.625,22.461,-20.996
1584600048.063,22.461,31.738,27.832,-29.785,25.391
1584600048.067,65.918,36.133,29.785,58.105,16.113
1584600048.071,77.148,31.250,25.879,118.652,2.441
1584600048.075,41.992,30.273,29.785,49.316,33.691
1584600048.079,25.879,37.598,29.785,-17.090,45.898
1584600048.083,57.129,34.180,27.832,61.035,23.926
1584600048.087,81.055,35.156,37.598,144.531,43.457
1584600048.091,53.223,35.156,29.785,82.031,13.672
1584600048.095,10.254,27.344,22.949,-22.949,-23.438
1584600048.099,26.855,22.949,33.203,-11.719,38.574
1584600048.102,62.988,28.809,33.203,94.238,22.461
1584600048.106,49.805,39.062,27.832,97.168,-22.461
1584600048.110,16.602,38.574,16.602,-6.348,17.578
1584600048.114,24.414,40.039,18.066,-27.344,20.996
1584600048.118,62.500,37.598,25.879,75.195,76.660
1584600048.122,56.641,27.344,30.762,109.863,97.168
1584600048.126,19.531,29.297,28.320,17.578,32.715
1584600048.130,7.812,25.879,15.137,-40.527,52.734
1584600048.134,41.992,28.320,20.020,46.387,41.016
1584600048.138,65.430,33.691,33.203,131.348,7.324
1584600048.142,40.039,31.738,36.621,50.781,51.270
1584600048.145,6.348,25.879,25.879,-49.316,47.363
1584600048.149,27.344,28.320,26.367,7.812,14.160
1584600048.153,59.082,41.992,29.297,108.398,35.645
1584600048.157,38.574,32.715,23.926,70.312,39.062
1584600048.161,-0.488,22.461,23.926,-36.621,0.000
1584600048.165,17.090,31.250,33.691,-13.672,44.922
1584600048.169,66.895,46.875,39.062,111.816,48.828
1584600048.173,54.688,41.992,34.668,112.305,5.859
1584600048.177,0.488,22.461,27.832,-15.625,4.395
1584600048.181,7.324,27.344,30.762,-39.551,19.531
1584600048.185,46.387,34.180,34.180,69.336,12.695
1584600048.188,46.875,30.273,29.785,110.840,46.387
1584600048.192,7.812,20.508,22.949,18.066,58.105
1584600048.196,-7.812,16.113,20.508,-50.781,30.273
1584600048.200,35.645,29.297,31.738,32.715,40.527
1584600048.204,66.895,44.434,38.574,124.023,41.992
1584600048.208,33.691,34.180,23.438,58.594,4.883
1584600048.212,-7.324,20.020,9.766,-46.387,-21.973
1584600048.216,19.043,29.297,25.879,0.977,-25.879
1584600048.220,48.340,38.574,35.645,105.469,31.738
1584600048.224,30.273,35.156,26.855,69.336,34.180
1584600048.227,-5.859,28.809,18.555,-35.156,20.508
1584600048.231,4.883,28.320,16.113,-33.691,67.383
1584600048.235,56.152,43.457,31.738,86.426,58.594
1584600048.239,54.199,41.016,26.855,111.328,53.223
1584600048.243,5.859,26.367,11.230,-13.184,12.207
1584600048.247,-3.906,22.461,17.578,-56.641,50.781
1584600048.251,31.738,28.320,20.996,44.434,26.367
1584600048.255,43.457,33.203,19.531,101.562,-28.320
1584600048.259,11.230,32.227,23.438,24.902,53.711
1584600048.263,6.836,40.039,25.391,-40.527,76.660
1584600048.267,38.574,41.992,29.297,28.809,68.848
1584600048.270,57.617,43.457,37.598,111.816,55.664
1584600048.274,21.484,32.715,29.785,40.527,57.617
1584600048.278,-26.855,12.207,23.926,-64.941,25.391
1584600048.282,4.883,20.508,27.832,-19.043,-29.297
1584600048.286,50.781,34.180,28.809,98.633,-4.883
1584600048.290,34.180,30.762,31.738,83.984,16.113
1584600048.294,-8.301,26.855,26.855,-27.344,37.109
1584600048.298,0.488,30.273,17.090,-37.598,26.855
1584600048.302,42.480,35.156,23.438,73.242,32.227
1584600048.306,45.410,35.645,36.133,107.422,46.387
1584600048.310,3.906,20.508,24.414,-0.488,53.223
1584600048.313,-6.348,19.043,18.066,-54.688,58.594
1584600048.317,31.250,27.832,27.344,40.527,-15.137
1584600048.321,44.922,22.949,27.832,110.840,-29.785
1584600048.325,10.742,20.020,26.855,31.738,17.090
1584600048.329,-9.277,19.531,24.902,-51.758,33.691
1584600048.333,34.180,25.391,26.367,21.973,31.738
1584600048.337,61.035,28.320,29.297,124.512,40.527
1584600048.341,30.762,21.484,28.809,70.801,64.941
1584600048.345,-0.488,17.578,28.320,-40.039,7.324
1584600048.349,11.230,20.508,25.391,-21.484,20.020
1584600048.352,49.805,27.832,32.715,97.168,47.852
1584600048.356,41.992,32.227,39.062,102.539,-25.879
1584600048.360,-6.348,26.855,27.344,-24.902,-18.555
1584600048.364,-5.371,20.020,19.043,-58.105,-2.441
1584600048.368,32.227,20.020,33.691,56.152,11.719
1584600048.372,30.273,20.508,33.691,91.797,41.504
1584600048.376,-7.324,20.508,17.578,-7.324,6.836
1584600048.380,-7.324,32.715,20.996,-51.270,47.363
1584600048.384,36.621,37.598,34.668,47.363,87.891
1584600048.388,43.945,29.785,30.762,115.234,81.543
1584600048.392,5.859,28.320,27.344,31.250,88.379
1584600048.395,-9.766,29.297,33.203,-51.270,82.520
1584600048.399,23.438,30.762,31.250,7.812,23.438
1584600048.403,56.152,40.527,28.809,97.656,-12.695
1584600048.407,35.156,36.133,27.344,61.035,-16.602
1584600048.411,-0.977,29.785,28.809,-32.715,-10.254
1584600048.415,18.555,39.062,34.180,-18.066,42.480
1584600048.419,45.898,34.668,31.250,83.008,75.684
1584600048.423,28.809,28.320,25.391,82.520,30.762
1584600048.427,-7.324,26.367,25.879,-18.555,47.363
1584600048.431,3.418,28.320,28.320,-40.039,1.465
1584600048.435,50.293,33.203,33.203,67.383,-17.090
1584600048.438,51.758,28.320,32.715,116.211,32.227
1584600048.442,6.348,21.484,27.344,14.648,29.785
1584600048.446,-3.906,21.484,34.668,-59.082,29.785
1584600048.450,40.527,32.715,39.062,22.461,8.789
1584600048.454,61.523,34.668,37.109,109.375,29.785
1584600048.458,25.879,29.785,35.156,50.781,52.734
1584600048.462,-3.418,23.926,30.762,-42.480,51.270
1584600048.466,18.555,18.066,34.180,-5.371,32.227
1584600048.470,45.410,27.344,40.039,101.074,28.809
1584600048.474,28.809,28.809,41.504,88.379,18.555
1584600048.477,-6.836,25.391,38.574,-27.832,12.695
1584600048.481,17.578,27.832,36.621,-30.273,6.348
1584600048.485,68.848,24.414,35.645,93.750,-6.348
1584600048.489,47.363,24.902,37.109,110.352,15.625
1584600048.493,-13.672,23.926,36.133,-22.949,10.254
1584600048.497,-15.137,19.531,27.832,-72.266,-5.859
1584600048.501,30.273,24.902,26.367,37.598,26.855
1584600048.505,36.133,24.414,24.414,90.820,64.941
1584600048.509,9.766,17.578,27.832,11.719,17.578
1584600048.513,2.930,20.020,29.785,-50.293,35.645
1584600048.517,41.992,28.809,33.203,30.762,33.203
1584600048.520,64.453,31.738,38.574,120.117,-0.977
1584600048.524,29.297,28.809,27.344,63.477,0.977
1584600048.528,-2.441,18.555,27.344,-40.527,25.879
1584600048.532,15.625,15.625,34.180,-19.531,40.039
1584600048.536,45.898,23.438,35.156,82.520,16.602
1584600048.540,31.250,19.531,36.133,69.824,-0.977
1584600048.544,-8.789,12.207,29.297,-40.527,-44.434
1584600048.548,6.348,19.043,27.832,-41.504,-17.578
1584600048.552,49.805,23.438,28.320,72.266,50.293
1584600048.556,51.758,22.461,23.926,98.145,62.500
1584600048.560,11.230,20.020,20.996,-7.812,49.316
1584600048.563,-8.789,20.508,25.879,-60.059,24.414
1584600048.567,36.621,18.066,41.504,41.504,27.344
1584600048.571,57.129,18.066,43.945,113.281,7.812
