timestamps,TP9,AF7,AF8,TP10,Right AUX
1584598332.938,31.250,49.805,32.227,108.398,58.594
1584598332.942,80.566,46.387,37.109,195.801,83.984
1584598332.946,2.441,39.551,39.062,-18.555,66.406
1584598332.950,-66.895,36.133,37.109,-163.574,28.809
1584598332.954,3.418,40.527,40.039,33.691,-9.766
1584598332.958,82.520,43.945,43.945,197.266,6.836
1584598332.962,32.227,39.062,38.086,46.875,36.133
1584598332.966,-62.988,35.156,36.621,-170.898,19.531
1584598332.970,-26.367,41.992,41.016,-46.387,26.367
1584598332.974,66.895,47.363,42.480,179.688,36.133
1584598332.977,57.129,45.410,40.527,124.023,34.180
1584598332.981,-48.340,39.551,35.645,-130.371,22.949
1584598332.985,-49.805,37.598,33.203,-107.422,2.441
1584598332.989,49.316,40.527,37.598,142.090,-5.859
1584598332.993,76.660,40.039,41.504,162.109,8.789
1584598332.997,-12.207,38.574,35.645,-79.590,12.695
1584598333.001,-55.664,38.086,35.156,-146.973,30.762
1584598333.005,22.949,37.598,38.574,84.473,16.113
1584598333.009,78.613,36.621,36.133,184.570,16.113
1584598333.013,6.836,34.180,34.180,-22.461,15.137
1584598333.017,-65.918,37.109,34.668,-181.641,-28.809
1584598333.020,-7.324,42.480,35.156,13.672,29.297
1584598333.024,67.871,40.527,38.086,194.336,53.711
1584598333.028,34.180,37.109,39.062,72.754,-54.199
1584598333.032,-65.430,34.668,37.598,-154.785,-1.465
1584598333.036,-37.598,36.621,39.551,-50.781,101.562
1584598333.040,54.688,41.504,40.527,171.875,61.035
1584598333.044,52.246,37.598,40.039,122.559,-12.207
1584598333.048,-41.504,31.738,38.574,-122.070,-39.551
1584598333.052,-55.176,33.203,37.109,-114.258,34.180
1584598333.056,37.109,35.645,39.551,124.512,27.832
1584598333.060,70.312,36.621,42.480,160.645,26.367
1584598333.063,-18.066,35.156,41.016,-62.012,50.781
1584598333.067,-71.289,31.738,39.551,-150.879,29.297
1584598333.071,8.789,33.203,39.551,72.754,77.637
1584598333.075,70.801,36.621,41.504,195.312,68.848
1584598333.079,6.836,34.180,42.480,9.766,9.766
1584598333.083,-76.172,31.738,37.598,-172.363,1.465
1584598333.087,-14.648,37.109,37.109,-13.672,-0.488
1584598333.091,74.707,41.016,43.945,182.129,25.879
1584598333.095,42.969,38.086,46.387,88.379,40.527
1584598333.099,-61.523,34.668,40.527,-155.273,27.344
1584598333.102,-43.945,35.645,41.016,-87.402,9.277
1584598333.106,52.734,40.527,44.434,153.809,60.059
1584598333.110,57.617,38.574,41.504,138.184,77.148
1584598333.114,-40.527,35.645,36.621,-115.234,15.137
1584598333.118,-66.406,35.645,34.180,-144.531,23.926
1584598333.122,24.902,39.062,35.645,105.957,41.992
1584598333.126,66.406,39.062,36.133,180.664,57.129
1584598333.130,-14.160,32.715,32.227,-50.781,12.695
1584598333.134,-75.195,32.715,31.250,-175.781,-51.758
1584598333.138,0.977,40.039,33.691,41.504,49.805
1584598333.142,74.219,44.434,36.621,192.383,24.902
1584598333.145,14.648,42.480,34.180,24.902,-0.488
1584598333.149,-73.730,38.574,29.297,-179.199,48.340
1584598333.153,-26.367,41.016,35.156,-22.461,17.578
1584598333.157,62.988,44.922,39.062,184.570,18.066
1584598333.161,42.969,39.551,34.668,84.473,19.531
1584598333.165,-59.570,37.598,31.250,-164.551,7.812
1584598333.169,-45.898,42.480,31.738,-99.121,29.785
1584598333.173,54.199,44.922,34.180,151.367,18.066
1584598333.177,67.383,42.480,35.156,147.949,33.691
1584598333.181,-28.809,39.551,33.203,-97.656,46.875
1584598333.185,-64.453,38.574,30.762,-141.602,16.602
1584598333.188,24.902,41.504,31.250,98.633,23.926
1584598333.192,74.219,41.992,30.273,184.082,19.043
1584598333.196,0.000,36.621,30.762,-25.879,12.207
1584598333.200,-63.965,36.133,29.785,-166.504,26.367
1584598333.204,4.883,40.527,30.762,28.320,63.965
1584598333.208,79.590,41.992,34.180,181.641,3.418
1584598333.212,35.645,42.969,33.691,42.969,4.883
1584598333.216,-57.129,39.062,32.227,-162.109,36.621
1584598333.220,-24.414,38.574,34.668,-33.203,13.672
1584598333.224,64.941,41.016,37.598,181.641,12.207
1584598333.227,55.176,40.039,39.062,117.188,25.879
1584598333.231,-45.898,38.574,37.598,-124.512,62.988
1584598333.235,-49.805,38.086,36.621,-98.145,39.551
1584598333.239,44.434,38.574,38.574,145.508,31.738
1584598333.243,68.848,40.527,40.039,166.016,18.555
1584598333.247,-29.785,35.645,37.109,-82.031,-25.391
1584598333.251,-76.660,32.715,31.738,-156.738,9.277
1584598333.255,13.672,38.574,34.180,72.754,19.043
1584598333.259,70.801,39.551,39.551,187.988,20.996
1584598333.263,0.000,35.645,36.621,-3.418,44.922
1584598333.267,-70.801,35.645,33.691,-166.992,45.410
1584598333.270,-5.859,40.039,38.086,24.902,33.691
1584598333.274,75.195,40.039,39.551,193.848,16.113
1584598333.278,37.109,37.109,35.645,58.105,-20.508
1584598333.282,-62.012,36.133,33.691,-161.133,-13.672
1584598333.286,-32.715,35.156,36.133,-48.340,20.020
1584598333.290,58.594,37.109,36.621,172.363,17.090
1584598333.294,56.641,36.133,36.133,115.723,31.738
1584598333.298,-40.527,31.738,32.227,-136.719,20.996
1584598333.302,-46.875,37.598,31.250,-116.699,31.250
1584598333.306,50.781,41.504,36.133,137.207,-11.719
1584598333.310,81.055,41.016,36.133,172.852,-44.434
1584598333.313,-7.812,41.504,32.227,-73.730,-1.953
1584598333.317,-59.082,42.480,30.273,-155.273,50.293
1584598333.321,15.137,44.434,32.227,82.031,57.617
1584598333.325,72.754,42.480,34.180,184.570,30.762
1584598333.329,10.742,37.109,33.203,-3.418,30.762
1584598333.333,-63.477,35.645,30.762,-170.410,70.312
1584598333.337,-3.418,41.016,32.227,9.766,68.848
1584598333.341,77.148,42.969,35.645,187.012,20.508
1584598333.345,45.410,41.504,33.203,61.523,54.688
1584598333.349,-56.152,40.039,29.297,-152.344,78.125
1584598333.352,-38.086,43.945,31.250,-52.734,54.688
1584598333.356,53.223,45.898,33.203,167.969,76.660
1584598333.360,55.176,40.527,33.203,133.789,61.523
1584598333.364,-39.551,36.133,30.762,-110.352,39.062
1584598333.368,-59.570,35.645,29.297,-118.652,31.250
1584598333.372,29.785,39.062,33.203,119.629,40.039
1584598333.376,73.242,38.086,35.645,172.852,73.730
1584598333.380,-4.883,31.738,34.668,-47.852,24.414
1584598333.384,-66.895,27.344,31.738,-158.691,20.508
1584598333.388,9.277,32.227,33.203,50.293,78.125
1584598333.392,79.590,39.551,37.598,187.500,75.684
1584598333.395,25.879,35.645,35.156,20.996,44.434
1584598333.399,-55.664,33.691,31.738,-169.434,43.457
1584598333.403,-6.836,41.504,33.691,-6.348,73.730
1584598333.407,74.707,43.457,38.574,198.242,38.574
1584598333.411,51.758,37.109,39.062,100.586,-2.441
1584598333.415,-43.457,34.180,32.227,-146.484,45.410
1584598333.419,-33.691,37.109,30.762,-84.961,16.602
1584598333.423,61.035,39.551,35.645,152.832,-30.762
1584598333.427,73.730,38.574,35.645,150.391,38.574
1584598333.431,-25.391,31.738,32.227,-106.445,49.805
1584598333.435,-58.105,35.156,31.250,-152.344,29.297
1584598333.438,31.250,43.945,35.645,104.492,31.250
1584598333.442,79.102,40.039,39.062,188.965,22.461
1584598333.446,4.395,35.645,36.621,-28.809,29.297
1584598333.450,-58.105,36.621,33.691,-166.504,33.691
1584598333.454,11.230,38.574,35.156,48.340,27.344
1584598333.458,76.660,39.062,38.086,200.195,-2.930
1584598333.462,26.855,39.551,36.621,32.227,-13.184
1584598333.466,-60.059,37.598,30.273,-173.340,-10.254
1584598333.470,-22.949,40.527,28.809,-33.691,4.883
1584598333.474,61.523,42.969,28.809,176.270,29.785
1584598333.477,50.293,37.109,29.785,98.145,46.387
1584598333.481,-41.992,36.133,29.297,-139.160,83.984
1584598333.485,-41.504,37.598,29.297,-90.820,65.430
1584598333.489,47.852,39.062,35.156,151.367,52.246
1584598333.493,68.359,39.062,35.645,159.180,38.086
1584598333.497,-16.113,30.762,34.668,-71.289,36.133
1584598333.501,-42.480,29.785,36.621,-118.652,54.199
1584598333.505,30.762,39.551,34.180,102.539,14.160
1584598333.509,60.059,42.969,28.809,171.875,26.367
1584598333.513,-8.789,34.668,27.344,-33.203,71.289
1584598333.517,-86.914,29.785,25.879,-185.059,89.844
1584598333.520,-29.297,33.691,23.926,-3.418,59.082
1584598333.524,54.199,36.133,25.879,161.133,16.602
1584598333.528,18.066,35.645,27.832,27.832,-23.438
1584598333.532,-76.172,30.762,24.414,-191.406,-44.922
1584598333.536,-49.316,30.273,21.484,-83.984,-13.184
1584598333.540,42.480,36.133,28.320,145.020,2.930
1584598333.544,41.504,37.109,33.203,112.793,27.832
1584598333.548,-57.129,29.785,32.227,-127.930,37.598
1584598333.552,-64.941,28.320,32.715,-118.652,21.484
1584598333.556,30.762,34.180,35.156,133.789,-1.953
1584598333.560,59.570,35.645,36.133,171.387,32.715
1584598333.563,-29.297,30.762,32.227,-72.266,6.348
1584598333.567,-74.707,31.738,28.320,-158.691,-20.508
1584598333.571,9.766,40.527,33.691,72.754,50.781
1584598333.575,72.754,43.457,36.621,192.383,61.523
1584598333.579,3.906,36.621,31.250,-2.441,6.348
1584598333.583,-72.266,34.180,27.832,-184.082,-43.945
1584598333.587,-1.465,41.016,33.203,6.348,28.809
1584598333.591,80.078,41.016,37.109,199.707,80.566
1584598333.595,43.945,39.551,36.621,92.285,32.227
1584598333.599,-52.246,37.109,33.203,-142.090,6.348
1584598333.602,-31.738,37.598,32.715,-65.430,-31.250
1584598333.606,64.453,41.504,37.598,170.898,-22.949
1584598333.610,70.801,40.039,38.574,144.531,2.930
1584598333.614,-36.621,34.668,34.668,-103.516,39.062
1584598333.618,-57.129,33.691,33.203,-115.723,48.340
1584598333.622,43.457,42.480,37.598,133.301,73.242
1584598333.626,79.590,41.992,39.062,177.246,76.660
1584598333.630,-5.371,34.668,33.691,-57.617,41.016
1584598333.634,-59.082,36.133,32.715,-154.297,63.477
1584598333.638,18.555,39.062,36.133,58.594,12.207
1584598333.642,85.449,38.086,34.668,188.477,-10.742
1584598333.645,23.926,36.133,34.180,20.508,38.574
1584598333.649,-69.824,33.691,35.645,-169.434,43.945
1584598333.653,-22.461,38.086,35.645,-12.695,40.527
1584598333.657,67.383,40.039,38.574,184.082,27.344
1584598333.661,43.945,37.598,37.109,89.844,35.156
1584598333.665,-54.199,36.133,35.156,-146.484,50.781
1584598333.669,-45.898,35.156,36.133,-89.355,22.461
1584598333.673,47.363,35.645,36.621,142.090,16.602
1584598333.677,68.848,39.062,36.133,145.996,61.035
1584598333.681,-20.508,37.109,35.156,-86.914,39.062
1584598333.685,-49.316,35.645,36.133,-120.605,33.691
1584598333.688,40.039,39.062,38.574,116.211,5.859
1584598333.692,84.473,37.109,41.992,183.105,-72.754
1584598333.696,0.000,30.762,39.062,-32.227,19.531
1584598333.700,-62.500,28.809,35.156,-161.133,65.918
1584598333.704,13.184,35.156,40.039,44.434,-5.371
1584598333.708,80.078,39.551,43.945,198.730,28.320
1584598333.712,30.273,35.645,40.527,47.363,27.832
1584598333.716,-58.594,31.250,37.109,-163.086,29.297
1584598333.720,-16.602,35.156,39.062,-34.180,-8.789
1584598333.724,73.730,41.016,42.480,197.754,-2.930
1584598333.727,58.594,36.621,41.992,128.418,37.598
1584598333.731,-44.434,29.297,37.109,-130.371,46.875
1584598333.735,-45.898,31.250,35.645,-89.355,93.262
1584598333.739,48.828,35.645,40.039,158.691,84.473
1584598333.743,69.336,34.668,41.504,168.457,36.133
1584598333.747,-20.020,31.738,38.574,-77.148,17.090
1584598333.751,-60.547,31.250,38.086,-141.602,10.254
1584598333.755,20.020,36.133,39.551,88.867,0.977
1584598333.759,74.219,37.598,39.062,184.570,43.945
1584598333.763,4.395,34.180,36.621,-24.414,80.566
1584598333.767,-69.824,34.180,35.645,-180.664,8.301
1584598333.770,-0.488,36.133,39.551,21.973,-12.207
1584598333.774,80.078,36.133,42.969,198.730,14.648
1584598333.778,35.156,30.762,38.574,57.129,-30.762
1584598333.782,-62.012,26.855,36.133,-165.527,-9.277
1584598333.786,-32.227,29.785,37.598,-42.969,28.320
1584598333.790,54.688,32.227,41.016,176.270,8.301
1584598333.794,55.176,29.297,44.922,131.348,15.137
1584598333.798,-32.715,28.809,43.945,-102.051,-23.438
1584598333.802,-61.035,36.133,38.574,-109.863,11.719
1584598333.806,17.090,37.598,37.109,104.004,33.203
1584598333.810,59.082,39.062,41.504,147.461,11.230
1584598333.813,-27.832,37.598,36.133,-72.266,25.391
1584598333.817,-83.008,36.133,30.273,-169.922,76.660
1584598333.821,3.906,42.969,33.691,52.734,81.543
1584598333.825,68.359,43.457,35.645,175.781,82.031
1584598333.829,2.930,38.574,35.156,1.465,97.168
1584598333.833,-74.219,35.645,34.668,-172.852,61.523
1584598333.837,-17.578,39.062,33.691,-12.207,29.297
1584598333.841,63.477,41.504,35.156,184.082,30.762
1584598333.845,39.551,38.086,36.621,79.590,20.020
1584598333.849,-59.570,34.180,32.715,-159.668,22.461
1584598333.852,-41.504,35.645,30.762,-87.402,3.906
1584598333.856,60.547,43.457,34.180,156.250,0.488
1584598333.860,73.242,42.480,34.668,151.367,13.672
1584598333.864,-27.344,38.574,34.180,-102.051,73.730
1584598333.868,-61.035,38.086,34.180,-133.301,53.223
1584598333.872,37.598,42.969,35.645,119.141,-3.418
1584598333.876,86.426,44.922,35.645,197.754,-6.836
1584598333.880,-4.883,37.109,33.203,-31.738,-22.461
1584598333.884,-67.871,34.180,31.250,-174.316,-2.441
1584598333.888,12.207,39.551,34.180,38.574,14.648
1584598333.892,84.961,40.039,38.574,203.613,28.320
1584598333.895,24.414,35.156,35.645,33.203,17.090
1584598333.899,-70.801,33.203,29.785,-187.988,1.465
1584598333.903,-20.996,37.598,34.180,-36.133,69.824
1584598333.907,72.754,40.039,39.551,187.500,45.898
1584598333.911,57.129,33.691,36.133,104.004,0.977
1584598333.915,-50.293,34.180,31.738,-152.344,40.527
1584598333.919,-49.316,39.551,33.691,-98.145,67.871
1584598333.923,53.711,39.062,36.133,157.715,53.223
1584598333.927,76.660,38.086,33.203,167.969,59.570
1584598333.931,-22.461,36.621,31.738,-86.426,64.453
1584598333.935,-64.941,35.156,33.691,-142.090,27.344
1584598333.938,21.484,36.621,36.133,102.539,44.922
1584598333.942,74.707,34.668,37.598,195.312,84.473
1584598333.946,-0.488,31.738,34.180,-26.855,56.152
1584598333.950,-71.289,35.156,29.785,-181.641,6.836
1584598333.954,0.488,36.621,32.715,19.531,17.090
1584598333.958,77.637,34.180,34.668,191.406,41.016
1584598333.962,26.855,38.086,31.738,53.711,42.480
1584598333.966,-74.707,34.668,29.297,-170.410,49.316
1584598333.970,-37.109,34.180,31.738,-46.387,-19.531
1584598333.974,63.965,41.016,34.668,179.199,-44.434
1584598333.977,57.129,40.039,33.203,128.906,45.898
1584598333.981,-52.734,37.109,30.762,-133.789,100.586
1584598333.985,-56.152,39.551,33.203,-113.770,57.129
1584598333.989,46.875,41.992,34.180,138.672,20.020
1584598333.993,76.172,40.527,35.645,169.434,41.016
1584598333.997,-17.578,35.645,36.133,-67.383,71.289
1584598334.001,-63.477,34.180,32.715,-160.645,50.293
1584598334.005,29.785,41.992,35.645,70.312,0.488
1584598334.009,94.238,43.457,39.551,201.660,-13.184
1584598334.013,19.043,38.574,36.621,6.348,-12.207
1584598334.017,-63.477,38.574,31.738,-170.898,-26.855
1584598334.020,0.000,40.527,33.203,14.648,-2.930
1584598334.024,83.984,41.016,36.133,203.125,22.949
1584598334.028,50.293,36.133,33.203,77.148,-3.418
1584598334.032,-53.223,30.273,30.273,-165.527,-22.461
1584598334.036,-33.691,32.227,31.250,-59.570,39.551
1584598334.040,63.477,37.598,36.133,180.664,25.879
1584598334.044,68.359,38.086,37.598,141.602,-23.438
1584598334.048,-35.156,33.691,35.156,-118.652,53.223
1584598334.052,-54.199,36.621,34.668,-123.535,47.363
1584598334.056,49.805,40.527,38.574,141.602,4.395
1584598334.060,92.285,39.551,40.527,199.219,59.082
1584598334.063,-2.441,38.574,33.203,-44.434,71.289
1584598334.067,-57.129,37.109,32.715,-148.926,17.578
1584598334.071,27.344,38.574,37.598,74.707,48.340
1584598334.075,90.332,38.574,39.062,206.543,69.336
1584598334.079,23.926,35.156,39.062,21.484,50.293
1584598334.083,-69.824,29.297,35.645,-179.199,0.488
1584598334.087,-20.020,30.762,36.133,-8.789,14.648
1584598334.091,70.312,32.227,38.086,190.918,41.016
1584598334.095,43.945,30.762,35.156,81.543,-14.648
1584598334.099,-60.547,32.227,32.715,-155.762,63.477
1584598334.102,-44.922,31.738,32.715,-76.660,72.754
1584598334.106,55.664,34.668,33.203,167.969,-1.465
1584598334.110,62.500,34.668,32.715,159.668,0.977
1584598334.114,-40.527,32.227,28.809,-95.215,20.996
1584598334.118,-67.871,30.762,28.809,-138.184,47.363
1584598334.122,30.273,34.668,30.273,106.934,46.875
1584598334.126,78.125,35.156,31.738,190.918,0.000
1584598334.130,-8.301,28.320,30.762,-41.992,0.000
1584598334.134,-73.242,27.344,26.367,-181.152,17.578
1584598334.138,2.441,30.273,30.762,28.320,53.223
1584598334.142,78.125,35.156,36.621,192.383,73.730
1584598334.145,20.020,32.715,34.180,40.527,94.238
1584598334.149,-74.219,28.809,29.297,-175.781,64.453
1584598334.153,-24.902,33.691,30.273,-33.203,21.484
1584598334.157,67.383,38.086,33.203,188.965,5.371
1584598334.161,49.805,36.133,32.227,110.352,13.672
1584598334.165,-53.223,32.227,31.250,-158.203,-38.086
1584598334.169,-46.875,33.203,33.691,-107.422,-45.410
1584598334.173,53.223,36.621,37.598,155.762,61.523
1584598334.177,77.637,35.645,38.574,169.434,57.129
1584598334.181,-20.508,29.785,35.645,-97.656,-9.277
1584598334.185,-61.523,31.738,34.668,-158.203,14.160
1584598334.188,31.250,35.645,40.039,113.770,54.688
1584598334.192,94.727,32.715,43.945,229.004,5.371
1584598334.196,11.719,32.227,41.016,-10.254,-15.625
1584598334.200,-86.914,34.668,29.785,-194.336,11.230
1584598334.204,-19.043,37.109,27.344,9.766,-11.230
1584598334.208,66.406,38.086,30.273,186.035,-0.488
1584598334.212,13.672,33.691,28.320,35.645,71.777
1584598334.216,-77.148,32.227,25.879,-192.383,71.289
1584598334.220,-35.156,37.109,25.391,-65.430,52.734
1584598334.224,48.340,38.086,29.785,163.086,85.938
1584598334.227,40.527,35.645,32.715,100.586,72.266
1584598334.231,-63.477,33.691,33.203,-158.691,12.207
1584598334.235,-71.777,33.203,36.621,-121.094,72.754
1584598334.239,31.250,36.621,39.062,141.113,84.473
1584598334.243,63.965,36.133,37.598,170.410,53.711
1584598334.247,-32.715,30.273,36.133,-80.566,2.441
1584598334.251,-77.637,29.785,34.668,-157.227,11.230
1584598334.255,16.113,34.668,37.598,77.637,63.477
1584598334.259,78.125,35.645,37.598,185.547,45.410
1584598334.263,3.418,32.227,34.180,-12.207,39.062
1584598334.267,-77.148,30.273,31.250,-179.199,34.668
1584598334.270,-12.695,31.250,32.715,8.301,8.789
1584598334.274,75.195,33.691,37.598,190.918,39.551
1584598334.278,38.086,33.203,33.691,61.035,38.574
1584598334.282,-65.918,28.809,29.297,-174.316,-34.180
1584598334.286,-34.180,27.344,32.227,-69.824,-16.602
1584598334.290,67.383,33.203,38.086,168.457,13.184
1584598334.294,68.359,33.203,38.086,139.160,32.227
1584598334.298,-34.668,28.809,33.691,-117.676,50.781
1584598334.302,-48.828,32.227,32.715,-119.141,37.598
1584598334.306,49.316,34.668,33.691,137.695,21.973
1584598334.310,83.496,32.715,35.156,182.617,-20.508
1584598334.313,-9.766,30.273,32.227,-60.547,36.133
1584598334.317,-63.477,30.273,27.832,-164.062,89.844
1584598334.321,19.043,30.762,32.715,64.453,-0.977
1584598334.325,85.938,37.598,37.598,197.754,-16.113
1584598334.329,20.996,34.180,37.109,9.766,38.574
1584598334.333,-62.012,26.855,34.668,-181.641,30.273
1584598334.337,-6.348,34.668,36.133,0.000,-2.441
1584598334.341,75.195,39.551,41.016,198.242,32.715
1584598334.345,43.945,36.621,41.504,78.613,50.781
1584598334.349,-55.176,31.738,38.086,-153.320,26.855
1584598334.352,-25.879,35.156,38.086,-54.199,7.812
1584598334.356,69.824,39.062,41.504,182.129,48.340
1584598334.360,71.289,38.574,40.039,141.113,69.336
1584598334.364,-23.438,32.715,36.133,-109.375,46.875
1584598334.368,-41.992,32.227,36.133,-111.816,1.953
1584598334.372,51.758,40.039,41.016,132.324,-10.254
1584598334.376,83.496,40.527,43.457,170.898,-4.395
1584598334.380,-4.883,37.109,39.551,-59.570,66.895
1584598334.384,-54.688,37.598,39.062,-137.695,73.242
1584598334.388,25.391,40.527,39.062,86.426,30.273
1584598334.392,84.473,43.945,41.016,197.266,53.223
1584598334.395,25.391,42.969,41.016,16.602,35.645
1584598334.399,-51.758,41.016,36.621,-161.133,23.926
1584598334.403,0.000,44.434,38.086,5.859,39.062
1584598334.407,80.078,47.852,42.480,197.266,40.039
1584598334.411,55.176,44.434,41.504,95.215,26.367
1584598334.415,-39.062,39.062,37.109,-133.301,83.008
1584598334.419,-28.809,40.527,35.645,-62.988,57.617
1584598334.423,62.500,43.457,39.551,165.039,0.488
1584598334.427,76.660,43.945,40.039,154.297,62.500
1584598334.431,-16.602,40.527,34.180,-84.473,88.867
1584598334.435,-43.945,41.992,32.715,-119.629,49.805
1584598334.438,43.457,45.410,38.574,119.629,59.082
1584598334.442,83.984,41.504,40.039,192.871,18.066
1584598334.446,-0.977,36.133,38.574,-27.344,-32.715
1584598334.450,-65.430,34.668,35.645,-157.227,27.344
1584598334.454,11.230,38.086,36.133,44.434,59.570
1584598334.458,81.543,39.551,40.527,198.730,55.176
1584598334.462,28.809,37.598,38.086,45.898,14.648
1584598334.466,-57.129,35.156,30.762,-172.852,22.949
1584598334.470,-16.113,41.016,33.203,-43.945,46.875
1584598334.474,67.871,46.387,36.621,176.270,-31.738
1584598334.477,50.781,40.527,34.668,107.422,-22.461
1584598334.481,-49.316,35.645,33.203,-134.766,55.176
1584598334.485,-51.270,39.062,33.203,-95.703,27.832
1584598334.489,45.410,42.969,37.109,144.531,-7.812
1584598334.493,73.242,41.016,39.062,157.227,37.598
1584598334.497,-20.996,35.645,34.180,-84.473,33.691
1584598334.501,-60.059,37.109,33.691,-143.066,-6.348
1584598334.505,26.855,39.551,36.621,95.703,-27.832
1584598334.509,78.613,41.016,36.621,187.988,21.973
1584598334.513,5.371,40.039,36.621,-25.879,30.273
1584598334.517,-62.500,39.551,36.621,-174.316,-41.016
1584598334.520,0.000,42.480,36.621,28.809,-17.090
1584598334.524,72.266,45.410,40.039,201.660,47.852
1584598334.528,34.668,41.016,40.527,65.918,26.367
1584598334.532,-60.059,35.156,40.527,-153.320,18.555
1584598334.536,-29.297,39.551,41.992,-36.621,41.504
1584598334.540,66.895,45.410,42.969,183.105,53.223
1584598334.544,63.965,43.945,42.480,139.160,34.180
1584598334.548,-37.109,41.016,39.551,-113.770,29.297
1584598334.552,-53.223,41.016,35.645,-113.281,22.949
1584598334.556,41.992,43.457,37.109,132.812,17.578
1584598334.560,77.637,43.945,39.062,171.387,40.527
1584598334.563,-17.090,39.062,37.598,-62.988,45.898
1584598334.567,-68.848,37.598,34.668,-160.156,0.977
1584598334.571,14.160,39.551,36.621,63.965,23.438
1584598334.575,78.125,39.062,41.504,197.266,-11.230
1584598334.579,23.438,37.598,39.551,20.508,-39.062
1584598334.583,-50.781,36.133,34.180,-156.738,54.688
1584598334.587,-4.883,37.598,41.504,10.742,85.449
1584598334.591,64.453,38.086,49.316,192.383,23.438
1584598334.595,32.227,34.668,45.898,82.520,23.438
1584598334.599,-66.895,23.926,43.945,-153.809,46.387
1584598334.602,-50.781,21.973,43.457,-87.402,26.367
1584598334.606,47.363,28.809,45.410,154.785,22.949
1584598334.610,59.082,29.297,46.387,154.785,55.176
1584598334.614,-45.898,25.391,41.016,-107.422,69.336
1584598334.618,-67.383,26.855,39.551,-138.672,52.734
1584598334.622,32.227,33.691,41.992,120.117,41.992
1584598334.626,73.242,33.691,43.945,196.777,57.617
1584598334.630,-12.695,27.344,41.992,-36.621,48.828
1584598334.634,-76.172,27.832,37.598,-174.316,3.418
1584598334.638,0.488,33.691,38.086,47.852,8.301
1584598334.642,78.613,34.180,40.527,211.426,47.363
1584598334.645,25.391,28.809,36.621,33.691,63.477
1584598334.649,-66.895,25.879,30.762,-182.129,49.805
1584598334.653,-19.043,27.344,32.715,-27.832,20.996
1584598334.657,75.684,31.250,36.621,197.754,-6.348
1584598334.661,49.805,30.273,35.156,104.004,8.301
1584598334.665,-63.965,26.855,33.691,-154.785,61.035
1584598334.669,-55.176,31.738,37.109,-89.844,78.125
1584598334.673,53.223,36.621,39.551,168.945,58.105
1584598334.677,75.684,34.668,36.621,174.316,17.090
1584598334.681,-26.367,30.273,34.668,-83.008,-25.391
1584598334.685,-59.570,31.250,36.133,-136.230,23.926
1584598334.688,35.156,35.156,38.086,108.398,85.449
1584598334.692,85.938,31.250,40.527,206.543,38.574
1584598334.696,4.883,26.855,40.527,-12.207,-44.922
1584598334.700,-69.336,28.809,39.062,-165.039,-38.574
1584598334.704,2.441,33.203,38.574,39.062,69.824
1584598334.708,85.449,39.062,40.039,207.520,86.914
1584598334.712,36.621,38.086,41.016,64.453,71.289
1584598334.716,-60.547,32.227,39.551,-153.809,51.758
1584598334.720,-20.508,35.645,40.039,-27.344,16.113
1584598334.724,78.125,40.039,44.922,202.637,77.637
1584598334.727,74.707,39.551,46.875,146.973,66.895
1584598334.731,-36.621,33.691,41.504,-118.652,48.828
1584598334.735,-43.945,31.250,37.598,-98.145,65.430
1584598334.739,57.129,34.180,40.039,155.273,-3.418
1584598334.743,86.914,35.645,41.504,182.129,-13.672
1584598334.747,-9.766,35.645,39.062,-71.289,69.336
1584598334.751,-59.082,30.762,36.621,-150.391,60.547
1584598334.755,27.832,34.180,38.574,90.820,39.062
1584598334.759,87.402,39.062,42.480,204.590,37.598
1584598334.763,16.602,34.668,39.062,-1.465,13.184
1584598334.767,-63.477,34.668,36.133,-169.434,42.480
1584598334.770,-2.441,40.527,38.086,24.414,14.648
1584598334.774,73.730,41.992,41.504,198.242,4.883
1584598334.778,29.785,36.133,38.086,58.105,-8.301
1584598334.782,-62.988,32.715,32.715,-162.598,26.855
1584598334.786,-24.902,36.133,33.691,-38.574,113.281
1584598334.790,65.430,38.086,37.109,185.547,81.055
1584598334.794,57.129,30.762,35.156,125.977,-14.160
1584598334.798,-39.551,26.367,30.762,-132.812,-40.039
1584598334.802,-49.316,32.715,31.738,-106.934,24.902
1584598334.806,39.551,37.109,35.645,145.508,38.086
1584598334.810,71.289,36.621,34.668,168.945,10.254
1584598334.813,-17.578,34.180,32.227,-67.871,-6.348
1584598334.817,-68.359,34.180,30.762,-147.949,27.344
1584598334.821,16.113,37.598,33.203,90.820,80.078
1584598334.825,78.613,38.086,35.156,194.336,54.688
1584598334.829,12.695,36.621,30.273,-10.254,43.457
1584598334.833,-65.430,33.691,27.832,-166.016,7.812
1584598334.837,-3.906,36.133,32.227,14.160,24.414
1584598334.841,77.148,35.156,34.668,181.152,28.320
1584598334.845,42.969,32.715,36.133,56.641,51.758
1584598334.849,-50.781,33.203,36.133,-154.785,73.242
1584598334.852,-28.320,32.715,35.645,-48.828,18.555
1584598334.856,61.523,35.156,36.621,177.734,27.344
1584598334.860,64.941,35.645,37.109,139.648,40.527
1584598334.864,-34.180,30.762,35.156,-108.887,28.809
1584598334.868,-55.176,28.809,32.715,-119.629,-16.113
1584598334.872,42.969,35.156,36.133,128.906,6.836
1584598334.876,81.543,36.133,41.504,186.523,43.457
1584598334.880,-4.883,32.715,38.574,-44.922,57.617
1584598334.884,-56.641,30.273,33.691,-153.809,91.309
1584598334.888,17.090,31.250,35.645,56.641,62.012
1584598334.892,79.590,36.133,41.504,191.895,10.254
1584598334.895,20.508,30.273,40.527,23.438,3.418
1584598334.899,-64.453,25.391,35.645,-162.598,-10.742
1584598334.903,-11.230,32.715,38.574,-0.977,14.648
1584598334.907,71.777,37.109,40.039,190.918,42.480
1584598334.911,48.828,33.203,37.598,94.727,19.043
1584598334.915,-48.340,27.344,34.180,-139.648,1.953
1584598334.919,-35.645,31.738,34.668,-77.148,-0.977
1584598334.923,60.059,37.598,37.109,158.203,55.176
1584598334.927,69.336,36.133,32.715,147.949,48.828
1584598334.931,-29.297,31.738,26.367,-105.957,16.602
1584598334.935,-54.199,34.668,28.320,-143.555,-10.254
1584598334.938,38.086,42.969,30.762,107.910,-17.578
1584598334.942,76.660,42.969,34.668,185.059,77.637
1584598334.946,-4.395,34.180,34.180,-38.574,61.523
1584598334.950,-65.918,28.809,30.273,-167.969,17.578
1584598334.954,4.395,36.621,33.691,39.551,6.348
1584598334.958,72.754,35.156,34.668,185.059,-5.859
1584598334.962,20.996,27.344,36.133,21.973,34.180
1584598334.966,-69.336,25.391,36.621,-179.199,49.805
1584598334.970,-30.273,28.809,34.180,-31.250,23.438
1584598334.974,55.176,26.855,32.227,176.270,8.789
1584598334.977,35.645,19.531,27.344,81.055,-5.859
1584598334.981,-63.965,17.578,21.484,-160.645,8.789
1584598334.985,-60.059,20.020,19.531,-104.004,37.109
1584598334.989,34.180,20.508,20.508,134.277,32.227
1584598334.993,53.711,20.020,20.020,141.602,10.742
1584598334.997,-42.480,19.531,17.578,-98.633,18.555
1584598335.001,-82.520,16.113,17.090,-157.715,28.809
1584598335.005,9.277,17.578,21.484,78.125,37.598
1584598335.009,60.547,21.973,23.926,170.898,25.879
1584598335.013,-16.113,20.996,21.973,-34.668,18.066
1584598335.017,-85.449,20.996,20.020,-180.664,52.734
1584598335.020,-19.531,23.438,22.461,7.324,59.082
1584598335.024,61.035,25.391,27.832,176.758,39.062
1584598335.028,20.996,25.879,27.344,44.922,-42.480
1584598335.032,-71.777,24.414,22.949,-174.316,-91.797
1584598335.036,-37.598,27.832,26.367,-62.012,-31.250
1584598335.040,55.664,34.668,32.227,162.598,11.719
1584598335.044,50.293,35.156,32.715,120.605,20.996
1584598335.048,-50.293,30.273,29.785,-121.094,30.273
1584598335.052,-56.152,31.738,30.273,-108.398,31.738
1584598335.056,48.340,38.574,36.621,152.344,57.617
1584598335.060,81.055,39.551,36.621,185.059,33.203
1584598335.063,-15.137,36.133,32.227,-67.871,66.406
1584598335.067,-65.430,32.715,33.203,-150.879,71.289
1584598335.071,17.090,34.180,35.156,74.707,40.039
1584598335.075,80.566,40.527,36.621,202.637,65.918
1584598335.079,13.672,37.598,36.133,11.230,29.785
1584598335.083,-70.801,31.250,32.227,-183.105,3.906
1584598335.087,-11.719,38.574,35.156,-3.418,19.043
1584598335.091,77.148,43.945,36.133,205.566,45.410
1584598335.095,46.387,37.109,33.691,99.121,28.809
1584598335.099,-58.105,33.203,30.762,-156.250,15.137
1584598335.102,-34.668,36.133,30.762,-78.125,19.531
1584598335.106,68.359,38.086,37.598,173.340,23.926
1584598335.110,72.754,36.133,40.527,157.227,55.176
1584598335.114,-33.691,32.227,36.621,-99.609,37.598
1584598335.118,-57.617,29.785,34.180,-120.117,25.879
1584598335.122,45.898,31.250,39.551,138.184,18.066
1584598335.126,95.703,35.645,40.527,207.031,20.996
1584598335.130,-10.254,35.156,34.180,-53.223,-0.488
1584598335.134,-83.008,31.250,30.762,-182.617,0.000
1584598335.138,10.254,37.109,32.715,50.293,83.008
1584598335.142,83.984,42.969,34.180,197.266,36.621
1584598335.145,17.578,38.574,32.715,23.438,-8.789
1584598335.149,-72.754,33.691,31.250,-182.129,17.578
1584598335.153,-21.973,36.133,31.738,-29.297,9.277
1584598335.157,69.824,39.551,31.738,185.059,13.672
1584598335.161,52.734,36.621,31.250,99.609,2.930
1584598335.165,-52.734,33.203,30.273,-150.391,1.953
1584598335.169,-48.828,37.109,30.273,-99.609,40.527
1584598335.173,56.641,41.504,33.203,150.391,66.895
1584598335.177,77.637,39.551,35.156,163.574,47.363
1584598335.181,-25.879,34.180,33.691,-85.938,63.477
1584598335.185,-59.570,33.691,31.250,-135.742,35.156
1584598335.188,37.109,40.039,33.691,111.816,-17.090
1584598335.192,90.332,40.039,36.133,201.660,-2.441
1584598335.196,8.789,35.156,34.668,-25.879,8.789
1584598335.200,-59.082,35.156,35.645,-161.133,-0.977
1584598335.204,18.066,40.527,36.621,53.711,40.527
1584598335.208,94.238,43.945,39.062,209.961,82.031
1584598335.212,44.922,45.410,37.598,48.828,18.066
1584598335.216,-44.922,41.504,34.668,-173.828,22.461
1584598335.220,-4.395,41.016,36.621,-34.180,51.270
1584598335.224,88.379,44.434,40.039,200.195,36.133
1584598335.227,74.707,40.527,40.039,130.859,49.805
1584598335.231,-32.227,35.156,36.621,-124.512,57.617
1584598335.235,-30.762,38.086,38.086,-80.078,9.766
1584598335.239,69.824,43.457,42.480,170.898,1.953
1584598335.243,91.309,40.039,42.480,183.594,55.176
1584598335.247,-7.324,37.598,40.039,-71.289,31.250
1584598335.251,-44.434,41.016,37.598,-134.277,-29.297
1584598335.255,42.480,42.969,36.621,110.840,5.859
1584598335.259,88.867,39.062,37.598,201.660,77.148
1584598335.263,17.090,34.180,33.691,-25.879,40.527
1584598335.267,-53.711,35.645,34.180,-162.109,-21.484
1584598335.270,12.695,36.621,38.086,53.223,-28.809
1584598335.274,104.492,34.668,43.457,224.609,-35.645
1584598335.278,66.895,37.109,43.457,85.449,20.508
1584598335.282,-46.875,40.039,32.227,-154.785,23.438
1584598335.286,-26.367,44.922,30.273,-45.898,-21.973
1584598335.290,64.941,46.875,34.180,170.410,-28.809
1584598335.294,64.453,44.922,33.691,108.887,-27.344
1584598335.298,-35.156,43.457,29.297,-132.324,38.574
1584598335.302,-30.762,45.410,27.832,-85.938,32.227
1584598335.306,63.477,48.828,27.344,144.531,-0.488
1584598335.310,75.684,48.340,27.344,138.184,-34.668
1584598335.313,-4.883,45.898,28.809,-79.590,-8.789
1584598335.317,-38.086,44.434,28.809,-127.930,26.367
1584598335.321,38.086,47.852,30.762,103.516,15.625
1584598335.325,81.543,46.387,32.715,191.895,24.414
1584598335.329,8.789,42.480,29.785,-20.020,15.137
1584598335.333,-59.570,39.551,27.344,-168.945,30.273
1584598335.337,4.883,42.480,27.832,20.020,47.363
1584598335.341,79.102,47.363,29.297,184.082,21.484
1584598335.345,40.039,44.922,31.250,56.152,5.859
1584598335.349,-52.246,39.551,28.809,-151.367,49.805
1584598335.352,-23.926,41.016,29.785,-41.992,40.039
1584598335.356,64.453,46.387,32.227,172.852,25.391
1584598335.360,59.570,45.410,33.691,126.953,51.270
1584598335.364,-33.691,39.551,30.273,-108.887,68.359
1584598335.368,-47.363,37.598,28.809,-105.957,54.688
1584598335.372,43.945,41.992,32.227,133.301,35.156
1584598335.376,75.684,41.504,33.203,174.805,77.637
1584598335.380,-7.812,39.062,31.250,-55.176,62.012
1584598335.384,-50.781,41.504,30.273,-148.926,36.133
1584598335.388,26.367,43.457,35.156,70.801,43.945
1584598335.392,85.449,41.504,39.062,201.660,12.207
1584598335.395,22.949,38.574,38.574,20.508,29.297
1584598335.399,-56.641,36.621,36.621,-166.504,13.672
1584598335.403,-4.883,40.527,35.156,-4.883,18.066
1584598335.407,79.590,42.969,39.551,196.777,76.660
1584598335.411,57.617,40.039,40.039,93.750,64.453
1584598335.415,-39.551,37.598,35.156,-151.367,-3.418
1584598335.419,-28.320,39.551,37.109,-71.777,-6.348
1584598335.423,63.965,45.410,39.551,170.410,71.289
1584598335.427,74.219,42.969,38.086,153.320,74.219
1584598335.431,-26.855,36.621,37.109,-94.238,25.391
1584598335.435,-54.688,38.574,35.645,-125.488,30.273
1584598335.438,40.527,41.016,38.574,117.188,-13.184
1584598335.442,84.473,39.551,38.086,188.477,41.992
1584598335.446,-3.418,37.598,33.203,-39.062,99.121
1584598335.450,-67.383,38.086,35.645,-160.156,45.898
1584598335.454,6.836,41.504,39.551,53.223,21.973
1584598335.458,76.660,40.527,40.039,184.082,-10.254
1584598335.462,28.320,39.062,38.574,24.902,-15.137
1584598335.466,-61.035,38.574,36.621,-172.363,-20.996
1584598335.470,-19.043,37.598,37.598,-33.203,15.137
1584598335.474,71.289,36.621,40.527,180.664,50.293
1584598335.477,52.246,36.133,41.504,116.211,26.367
1584598335.481,-56.152,34.180,37.598,-138.672,92.285
1584598335.485,-55.176,32.715,36.133,-108.398,86.914
1584598335.489,44.434,34.668,39.062,141.113,16.113
1584598335.493,69.336,36.621,39.062,158.203,-8.789
1584598335.497,-28.320,33.203,37.598,-89.844,13.672
1584598335.501,-70.312,31.250,38.574,-162.109,48.340
1584598335.505,20.508,39.062,40.527,78.125,35.156
1584598335.509,75.684,41.016,42.969,197.754,52.246
1584598335.513,-0.977,31.738,41.992,-11.230,62.500
1584598335.517,-76.660,29.297,38.086,-180.664,71.777
1584598335.520,-8.789,34.180,36.621,11.230,64.941
1584598335.524,71.289,36.133,38.574,189.453,-10.742
1584598335.528,26.855,32.227,37.598,55.176,-0.488
1584598335.532,-67.871,29.785,35.156,-172.852,37.598
1584598335.536,-35.645,32.715,35.645,-65.918,0.000
1584598335.540,59.082,37.598,36.621,164.551,9.277
1584598335.544,60.059,38.574,37.109,122.070,33.203
1584598335.548,-45.898,33.203,34.668,-143.066,-0.977
1584598335.552,-58.594,36.133,37.109,-132.324,-10.254
1584598335.556,44.434,40.527,41.504,137.695,3.418
1584598335.560,78.125,41.016,41.016,186.035,25.879
1584598335.563,-15.625,38.086,39.062,-61.035,-22.949
1584598335.567,-66.895,35.645,37.598,-147.949,2.441
1584598335.571,24.902,39.062,37.598,90.332,56.641
1584598335.575,91.309,41.016,36.133,211.426,-0.488
1584598335.579,20.508,37.109,34.180,6.836,20.508
1584598335.583,-64.453,31.738,31.250,-176.270,33.691
1584598335.587,-6.348,36.621,33.691,13.184,34.668
1584598335.591,75.195,39.062,38.086,196.777,55.664
1584598335.595,41.016,34.668,41.016,69.824,52.246
1584598335.599,-55.664,34.668,38.574,-152.832,19.043
1584598335.602,-30.762,35.645,36.621,-47.852,1.953
1584598335.606,65.918,37.598,40.039,180.664,6.836
1584598335.610,68.848,38.086,41.504,140.137,25.391
1584598335.614,-30.273,36.621,39.551,-106.445,67.383
1584598335.618,-47.363,37.109,34.668,-106.934,45.898
1584598335.622,48.340,42.969,37.598,140.137,0.977
1584598335.626,82.520,43.457,40.527,183.105,17.578
1584598335.630,1.465,30.762,40.039,-49.805,61.523
1584598335.634,-32.227,28.320,41.504,-120.605,15.137
1584598335.638,33.203,40.527,38.574,85.938,21.973
1584598335.642,55.176,42.969,34.668,159.668,97.656
1584598335.645,-8.301,38.574,32.715,-27.344,74.707
1584598335.649,-75.684,41.016,27.832,-190.918,68.359
1584598335.653,-25.879,46.387,26.367,-23.926,98.633
1584598335.657,47.363,47.852,26.367,147.949,33.203
1584598335.661,20.508,44.434,23.926,33.691,14.160
1584598335.665,-71.289,41.016,21.973,-187.500,60.059
1584598335.669,-54.199,42.480,22.461,-85.449,58.594
1584598335.673,32.715,45.410,24.902,139.648,19.043
1584598335.677,30.273,41.016,24.414,88.867,-4.883
1584598335.681,-61.035,34.180,21.973,-156.250,-4.883
1584598335.685,-72.266,36.621,24.414,-157.715,11.230
1584598335.688,20.508,43.457,28.809,93.750,4.883
1584598335.692,56.641,40.527,30.273,142.090,2.441
1584598335.696,-24.414,34.180,30.762,-77.637,5.859
1584598335.700,-74.707,34.180,30.762,-166.016,11.719
1584598335.704,3.418,41.016,32.715,60.059,21.484
1584598335.708,68.848,43.945,33.203,181.152,37.598
1584598335.712,14.160,40.527,31.250,3.906,13.184
1584598335.716,-62.988,39.062,28.320,-165.527,22.949
1584598335.720,-14.160,41.992,27.832,1.953,49.316
1584598335.724,61.035,40.039,30.273,187.988,-4.395
1584598335.727,41.504,34.668,31.250,72.266,60.059
1584598335.731,-47.363,34.668,30.273,-152.344,80.078
1584598335.735,-36.133,39.551,29.297,-76.172,8.301
1584598335.739,59.082,44.922,30.273,162.598,67.383
1584598335.743,68.359,41.992,33.203,155.762,69.336
1584598335.747,-23.926,35.156,32.227,-85.938,49.316
1584598335.751,-51.758,34.180,29.785,-131.348,0.488
1584598335.755,37.598,41.992,30.762,103.027,-2.441
1584598335.759,88.867,48.340,33.203,192.871,63.965
1584598335.763,10.742,42.480,34.180,-12.207,56.152
1584598335.767,-58.105,38.086,34.668,-156.250,68.848
1584598335.770,12.695,40.039,34.668,35.156,34.180
1584598335.774,89.844,40.527,38.086,200.195,50.781
1584598335.778,46.387,37.598,41.992,60.059,68.359
1584598335.782,-48.340,33.203,39.062,-149.902,37.598
1584598335.786,-11.719,33.203,36.133,-32.715,102.539
1584598335.790,80.078,39.062,39.551,177.734,82.031
1584598335.794,71.289,39.551,40.527,133.789,39.551
1584598335.798,-27.832,35.156,37.598,-111.328,7.812
1584598335.802,-35.645,37.598,39.062,-93.750,28.320
1584598335.806,56.641,41.992,41.992,150.879,44.434
1584598335.810,84.961,41.992,42.480,181.152,17.578
1584598335.813,-6.836,35.645,39.551,-60.059,-4.883
1584598335.817,-57.129,34.668,36.133,-151.855,-34.180
1584598335.821,28.320,40.527,36.621,79.590,42.480
1584598335.825,92.285,41.016,39.062,199.707,79.590
1584598335.829,20.020,32.715,39.062,2.930,18.066
1584598335.833,-70.312,27.344,35.645,-184.570,-38.574
1584598335.837,-11.230,33.203,40.039,-4.883,-66.895
1584598335.841,83.008,38.086,44.922,198.730,-39.062
1584598335.845,52.734,36.133,41.504,76.172,8.301
1584598335.849,-55.664,30.762,36.133,-167.480,19.043
1584598335.852,-35.156,32.715,35.645,-68.848,4.395
1584598335.856,65.430,37.598,39.062,172.363,10.254
1584598335.860,67.871,35.156,39.551,148.926,-7.812
1584598335.864,-41.992,28.809,38.086,-113.281,3.418
1584598335.868,-65.918,25.879,41.016,-129.883,22.461
1584598335.872,47.852,29.297,44.434,138.184,-28.809
1584598335.876,94.727,32.715,42.480,194.336,-59.570
1584598335.880,-14.648,34.180,35.645,-67.383,9.766
1584598335.884,-80.566,36.621,32.227,-183.594,39.062
1584598335.888,8.789,38.086,32.715,55.176,41.016
1584598335.892,80.566,39.062,33.203,194.824,15.137
1584598335.895,12.695,34.668,31.250,4.395,-18.066
1584598335.899,-76.660,30.273,30.273,-186.035,-23.926
1584598335.903,-21.484,33.691,34.668,-18.066,-13.184
1584598335.907,68.359,38.086,37.598,180.664,-7.812
1584598335.911,47.363,36.621,38.086,85.449,15.625
1584598335.915,-55.176,32.227,36.621,-162.109,50.781
1584598335.919,-40.527,32.715,35.156,-88.379,34.668
1584598335.923,60.059,35.645,36.621,147.949,55.176
1584598335.927,69.336,37.109,37.598,131.348,46.875
1584598335.931,-28.809,34.180,36.133,-106.934,18.066
1584598335.935,-52.734,37.109,34.180,-133.301,40.039
1584598335.938,44.434,42.480,40.039,116.699,-4.883
1584598335.942,85.449,41.016,44.434,186.523,-6.836
1584598335.946,-4.883,37.109,41.016,-41.016,53.223
1584598335.950,-63.965,36.133,39.062,-161.621,10.254
1584598335.954,11.719,38.574,41.504,51.270,-19.531
1584598335.958,84.473,41.504,45.410,205.566,22.949
1584598335.962,33.203,39.551,41.016,40.039,31.250
1584598335.966,-55.176,34.180,37.598,-174.316,88.867
1584598335.970,-2.441,38.574,40.527,-19.043,108.887
1584598335.974,86.426,43.457,45.410,200.684,53.711
1584598335.977,61.523,40.527,44.922,110.352,22.461
1584598335.981,-36.621,35.645,41.016,-136.719,21.484
1584598335.985,-29.785,35.156,41.992,-72.754,33.691
1584598335.989,59.082,37.109,44.922,170.898,9.766
1584598335.993,69.336,34.668,43.945,161.621,25.879
1584598335.997,-24.414,31.250,40.039,-83.984,53.711
1584598336.001,-53.223,32.715,39.551,-125.488,20.020
1584598336.005,33.203,34.668,41.504,113.770,42.969
1584598336.009,70.801,33.691,41.504,181.152,77.148
1584598336.013,-11.230,29.785,38.086,-44.922,83.984
1584598336.017,-69.336,30.762,34.180,-164.551,41.504
1584598336.020,5.859,35.156,36.621,54.199,35.645
1584598336.024,76.660,36.133,40.039,196.289,65.430
1584598336.028,26.855,34.180,36.133,29.297,21.484
1584598336.032,-57.617,32.227,33.203,-162.109,31.250
1584598336.036,-14.160,34.668,35.156,-10.742,22.949
1584598336.040,67.383,37.109,35.645,183.105,13.184
1584598336.044,48.828,35.645,33.691,98.633,36.621
1584598336.048,-43.457,33.203,27.832,-137.207,-2.441
1584598336.052,-38.086,33.691,26.367,-90.332,20.996
1584598336.056,50.293,31.738,31.738,145.996,44.922
1584598336.060,63.477,33.203,33.203,142.090,44.922
1584598336.063,-24.414,34.180,31.250,-85.938,26.855
1584598336.067,-59.570,30.762,31.738,-130.371,10.254
1584598336.071,26.367,34.180,34.668,102.051,52.734
1584598336.075,79.590,37.598,34.180,187.012,34.180
1584598336.079,10.742,33.691,32.715,-12.207,49.805
1584598336.083,-58.594,33.203,31.250,-152.832,56.152
1584598336.087,4.395,39.551,34.180,38.086,41.504
1584598336.091,79.590,41.504,40.527,197.266,69.824
1584598336.095,39.062,38.574,39.062,59.082,-14.160
1584598336.099,-51.270,34.668,34.668,-153.809,-23.926
1584598336.102,-20.508,34.668,34.668,-47.363,40.527
1584598336.106,70.312,37.109,37.598,175.293,24.902
1584598336.110,62.500,36.133,37.598,130.859,25.879
1584598336.114,-34.668,33.203,33.203,-116.699,12.207
1584598336.118,-45.410,34.180,35.645,-97.656,64.453
1584598336.122,44.922,39.062,40.527,149.902,35.156
1584598336.126,72.266,38.574,39.062,176.270,-32.227
1584598336.130,-15.625,33.691,37.598,-61.523,0.977
1584598336.134,-63.965,35.645,39.551,-143.066,47.363
1584598336.138,19.043,42.480,41.016,83.496,58.105
1584598336.142,81.055,41.992,42.969,190.430,35.645
1584598336.145,17.090,35.645,41.504,-4.883,19.043
1584598336.149,-59.570,31.738,35.645,-173.828,2.930
1584598336.153,-7.324,37.598,38.086,5.371,-10.254
1584598336.157,66.895,42.480,41.992,194.824,23.926
1584598336.161,37.598,37.109,40.039,64.941,27.832
1584598336.165,-52.734,35.645,36.621,-163.086,62.500
1584598336.169,-30.273,37.109,37.598,-58.105,92.285
1584598336.173,62.500,38.086,38.574,169.922,-5.371
1584598336.177,62.012,37.109,36.133,128.906,13.672
1584598336.181,-33.691,33.203,33.691,-110.352,45.898
1584598336.185,-49.805,36.621,34.180,-110.352,42.480
1584598336.188,40.527,39.551,35.645,129.883,68.359
1584598336.192,74.707,35.156,35.645,174.316,47.363
1584598336.196,-8.789,30.273,34.180,-57.617,5.859
1584598336.200,-66.895,31.738,31.738,-154.297,34.668
1584598336.204,4.395,33.691,33.203,59.082,51.758
1584598336.208,66.895,34.180,34.668,169.922,19.531
1584598336.212,12.695,34.180,31.738,1.465,42.480
1584598336.216,-64.941,35.645,29.785,-169.434,33.691
1584598336.220,-17.578,36.621,33.691,-5.859,23.926
1584598336.224,63.965,39.551,38.086,182.617,19.043
1584598336.227,42.969,39.062,38.086,89.844,43.945
1584598336.231,-52.246,32.715,36.621,-137.695,64.453
1584598336.235,-41.992,31.738,34.180,-74.707,36.133
1584598336.239,46.387,34.180,35.645,154.785,34.180
1584598336.243,60.059,36.621,35.156,145.020,23.438
1584598336.247,-26.855,35.645,31.250,-93.750,-26.855
1584598336.251,-59.570,32.227,30.762,-137.207,-26.367
1584598336.255,35.645,38.574,34.180,98.633,65.918
1584598336.259,87.402,45.898,37.109,185.059,102.051
1584598336.263,3.418,41.992,34.180,-22.949,64.453
1584598336.267,-58.594,38.574,35.645,-150.879,57.617
1584598336.270,15.137,41.992,40.039,55.664,48.828
1584598336.274,89.355,43.945,41.504,205.566,5.371
1584598336.278,43.457,38.574,40.039,55.664,11.719
1584598336.282,-48.828,34.180,37.598,-148.438,14.160
1584598336.286,-11.230,37.598,39.551,-15.625,2.441
1584598336.290,83.984,42.480,45.898,199.219,47.852
1584598336.294,68.359,39.551,47.852,127.441,29.785
1584598336.298,-36.621,35.156,41.992,-126.465,-5.371
1584598336.302,-33.203,41.016,41.504,-95.703,27.832
1584598336.306,63.965,44.922,47.363,166.992,64.941
1584598336.310,93.262,42.480,45.898,196.289,55.664
1584598336.313,4.883,35.645,42.969,-55.664,42.969
1584598336.317,-42.969,35.156,40.527,-137.207,36.621
1584598336.321,38.086,41.992,41.016,95.703,62.012
1584598336.325,94.238,42.480,42.969,208.496,29.297
1584598336.329,22.949,38.574,40.527,4.395,5.859
1584598336.333,-63.965,35.645,39.551,-172.363,33.203
1584598336.337,-2.930,41.016,41.016,7.324,9.277
1584598336.341,85.938,44.434,42.480,195.801,22.949
1584598336.345,49.805,41.504,42.480,70.801,-4.883
1584598336.349,-50.781,38.574,38.086,-164.062,-43.457
1584598336.352,-27.832,38.086,34.668,-57.617,17.578
1584598336.356,69.824,41.992,38.086,177.734,10.742
1584598336.360,74.219,44.434,41.992,145.996,-12.695
1584598336.364,-31.738,41.992,38.086,-105.469,-5.371
1584598336.368,-53.711,38.574,34.668,-124.023,-52.246
1584598336.372,44.434,39.062,39.551,130.859,-15.625
1584598336.376,85.938,42.969,42.969,191.895,34.180
1584598336.380,-4.395,38.574,39.062,-53.711,13.672
1584598336.384,-62.012,31.738,34.668,-166.504,-11.230
1584598336.388,18.555,37.109,38.086,53.223,-23.926
1584598336.392,85.938,41.504,42.480,195.801,6.348
1584598336.395,22.461,39.062,39.062,21.973,20.020
1584598336.399,-67.383,34.668,34.180,-171.387,33.203
1584598336.403,-15.137,37.109,36.621,-3.906,72.266
1584598336.407,72.754,39.551,38.574,199.707,61.523
1584598336.411,46.387,37.109,37.598,98.633,68.359
1584598336.415,-57.617,36.133,34.668,-158.691,79.590
1584598336.419,-42.969,36.133,36.621,-87.402,34.668
1584598336.423,59.570,37.598,39.551,166.504,16.602
1584598336.427,70.801,35.645,38.086,159.180,4.883
1584598336.431,-36.621,30.273,34.180,-110.840,15.625
1584598336.435,-62.988,34.180,34.180,-150.879,0.000
1584598336.438,36.621,43.457,37.109,116.211,29.785
1584598336.442,80.078,41.992,36.621,193.848,83.496
1584598336.446,-2.441,36.133,36.133,-36.621,43.457
1584598336.450,-68.848,34.180,35.156,-172.363,-29.785
1584598336.454,3.418,39.551,37.109,41.992,5.859
1584598336.458,82.031,41.504,40.527,198.730,20.508
1584598336.462,26.367,35.645,39.551,31.738,-10.742
1584598336.466,-70.312,32.715,35.156,-177.246,13.672
1584598336.470,-24.902,36.621,37.109,-28.320,62.988
1584598336.474,63.477,37.109,42.480,188.965,86.914
1584598336.477,50.293,36.133,40.039,104.980,31.738
1584598336.481,-49.316,36.621,37.109,-147.949,7.812
1584598336.485,-46.387,38.574,41.504,-91.309,56.641
1584598336.489,53.223,42.969,42.480,166.016,30.762
1584598336.493,75.684,41.992,41.992,173.340,24.414
1584598336.497,-21.973,35.645,40.039,-72.754,62.500
1584598336.501,-62.988,34.180,37.109,-135.742,16.113
1584598336.505,26.855,39.551,39.551,96.680,21.484
1584598336.509,81.055,39.062,40.039,195.801,36.133
1584598336.513,4.883,32.715,37.598,-21.973,-16.113
1584598336.517,-66.406,31.250,35.645,-177.246,-45.898
1584598336.520,-0.977,36.133,35.645,25.391,-9.766
1584598336.524,73.242,40.039,36.133,200.195,49.316
1584598336.528,31.250,39.062,37.598,61.523,34.180
1584598336.532,-67.383,34.180,34.668,-166.992,60.059
1584598336.536,-32.715,31.250,34.180,-56.641,21.484
1584598336.540,68.359,36.621,39.062,176.270,-5.859
1584598336.544,63.477,39.062,39.551,133.301,0.488
1584598336.548,-43.457,33.691,34.180,-126.953,44.922
1584598336.552,-50.293,34.180,31.250,-115.723,95.215
1584598336.556,52.246,37.109,34.180,135.742,44.434
1584598336.560,77.637,35.645,34.180,175.781,68.359
1584598336.563,-24.414,29.297,28.320,-67.383,71.289
1584598336.567,-73.242,27.344,26.855,-155.762,15.625
1584598336.571,12.207,29.785,32.227,76.172,-40.039
1584598336.575,71.777,32.715,33.203,193.848,45.898
1584598336.579,3.906,29.785,31.738,-7.324,82.520
1584598336.583,-77.637,22.949,27.344,-187.012,-0.488
1584598336.587,-14.648,28.809,28.320,5.859,-27.832
1584598336.591,73.242,34.668,33.691,190.918,-6.836
1584598336.595,37.109,32.715,32.715,59.082,34.668
1584598336.599,-63.965,28.320,29.785,-164.551,4.883
1584598336.602,-33.691,28.809,31.738,-51.270,-17.090
1584598336.606,61.035,34.668,33.203,177.734,41.016
1584598336.610,57.129,34.668,32.227,127.930,49.805
1584598336.614,-41.016,28.809,26.855,-127.441,11.230
1584598336.618,-49.805,32.227,28.320,-106.934,37.598
1584598336.622,54.199,41.016,34.668,152.344,51.758
1584598336.626,98.633,41.992,31.738,179.199,24.414
1584598336.630,18.066,40.039,28.809,-59.570,22.949
1584598336.634,-46.387,29.785,41.016,-139.160,83.008
1584598336.638,11.230,24.414,47.852,84.961,105.469
1584598336.642,68.359,28.320,43.457,193.848,33.691
1584598336.645,7.812,29.785,41.992,12.207,24.902
1584598336.649,-65.918,27.344,40.527,-154.297,44.434
1584598336.653,-3.906,26.367,43.457,19.531,22.461
1584598336.657,74.707,29.297,49.316,204.590,12.207
1584598336.661,43.945,27.832,47.363,91.797,37.109
1584598336.665,-47.363,25.391,41.016,-140.625,20.996
1584598336.669,-27.832,28.809,40.527,-53.711,19.043
1584598336.673,74.219,35.645,40.527,184.082,61.035
1584598336.677,87.891,39.551,41.992,161.621,78.125
1584598336.681,-15.625,33.691,42.969,-82.031,17.578
1584598336.685,-42.480,33.203,42.480,-99.121,0.488
1584598336.688,50.293,40.527,43.945,141.113,59.570
1584598336.692,86.914,39.062,43.945,192.871,16.113
1584598336.696,1.465,31.250,41.992,-32.715,-35.645
1584598336.700,-52.734,30.762,40.039,-143.066,6.348
1584598336.704,21.973,32.227,37.598,71.777,54.688
1584598336.708,84.473,32.715,40.039,204.102,21.973
1584598336.712,32.227,32.715,41.016,31.738,6.836
1584598336.716,-50.781,31.738,37.598,-162.109,-9.277
1584598336.720,-7.324,35.645,36.133,-14.648,10.742
1584598336.724,83.008,41.016,41.016,196.289,66.406
1584598336.727,66.406,38.574,41.504,105.469,60.059
1584598336.731,-32.227,34.668,37.109,-135.742,27.344
1584598336.735,-22.461,35.645,39.062,-62.500,57.617
1584598336.739,69.336,42.480,41.504,176.758,101.562
1584598336.743,78.613,41.504,40.527,169.922,67.383
1584598336.747,-15.137,34.180,38.086,-83.496,33.203
1584598336.751,-46.387,34.180,37.109,-130.371,44.434
1584598336.755,40.527,39.062,39.551,117.676,39.062
1584598336.759,88.867,38.086,39.062,190.430,34.668
1584598336.763,10.742,31.738,36.133,-32.715,70.801
1584598336.767,-57.617,30.273,37.109,-162.109,30.273
1584598336.770,12.207,35.156,38.574,51.270,-52.734
1584598336.774,83.496,40.527,38.574,205.078,-23.926
1584598336.778,34.668,37.598,39.551,48.828,49.316
1584598336.782,-53.711,30.762,40.039,-156.250,72.754
1584598336.786,-13.672,34.180,40.039,-24.902,62.500
1584598336.790,71.777,38.574,39.551,181.152,44.922
1584598336.794,63.477,37.109,38.086,111.816,13.184
1584598336.798,-31.738,32.715,38.574,-126.953,-21.973
1584598336.802,-36.621,33.691,37.598,-88.379,-4.883
1584598336.806,56.152,36.621,37.598,146.973,10.742
1584598336.810,82.031,36.133,40.527,154.785,20.508
1584598336.813,-12.695,32.715,37.598,-84.473,-8.301
1584598336.817,-59.082,31.738,35.156,-146.484,-8.301
1584598336.821,28.320,37.598,37.598,95.215,45.410
1584598336.825,87.402,38.574,39.551,199.219,43.945
1584598336.829,19.531,32.715,38.574,-1.465,21.973
1584598336.833,-60.547,31.738,35.156,-161.621,12.207
1584598336.837,-1.953,39.062,36.621,19.531,44.922
1584598336.841,75.195,41.016,36.133,187.988,36.133
1584598336.845,34.180,39.062,34.180,58.105,-0.977
1584598336.849,-57.617,35.645,35.156,-156.738,49.316
1584598336.852,-24.902,35.645,36.621,-43.945,68.359
1584598336.856,65.918,40.039,41.504,185.059,57.617
1584598336.860,58.105,38.086,40.527,134.766,26.367
1584598336.864,-39.062,34.668,35.645,-112.305,64.453
1584598336.868,-52.734,34.180,38.086,-98.633,62.988
1584598336.872,36.133,33.203,41.504,141.113,-37.109
1584598336.876,70.801,35.156,41.016,178.711,-31.738
1584598336.880,-15.625,30.273,37.598,-59.082,34.180
1584598336.884,-64.941,28.809,36.133,-148.438,50.293
1584598336.888,18.555,37.109,39.551,84.473,49.805
1584598336.892,78.613,38.086,40.527,195.312,-26.367
1584598336.895,14.648,30.273,35.645,0.000,-80.078
1584598336.899,-64.453,26.855,31.738,-170.898,-5.859
1584598336.903,-8.301,33.203,36.133,10.742,36.133
1584598336.907,74.707,38.086,41.992,201.172,40.527
1584598336.911,41.016,34.180,39.551,84.473,78.613
1584598336.915,-49.805,31.738,34.668,-156.250,78.613
1584598336.919,-27.344,35.645,36.621,-64.453,60.059
1584598336.923,62.988,41.504,39.062,172.852,48.340
1584598336.927,69.824,39.551,38.574,133.789,-8.789
1584598336.931,-28.809,32.715,37.109,-111.816,-20.996
1584598336.935,-48.828,35.645,37.109,-114.258,0.977
1584598336.938,46.387,37.598,38.086,128.418,-26.367
1584598336.942,83.008,36.133,37.109,181.152,38.086
1584598336.946,-2.441,31.738,35.645,-50.293,77.637
1584598336.950,-55.176,31.738,33.691,-161.133,67.871
1584598336.954,20.996,38.086,37.598,63.477,83.496
1584598336.958,84.961,40.527,38.574,191.406,53.223
1584598336.962,28.320,37.109,37.109,20.508,45.898
1584598336.966,-62.012,35.156,37.109,-163.086,97.168
1584598336.970,-11.719,41.016,39.062,-2.930,102.539
1584598336.974,74.707,41.992,39.551,189.453,62.012
1584598336.977,51.270,40.039,37.598,91.797,80.078
1584598336.981,-48.828,37.598,35.645,-143.555,91.309
1584598336.985,-41.992,34.668,36.133,-84.961,2.441
1584598336.989,48.828,36.621,37.598,147.949,-6.836
1584598336.993,62.988,36.133,39.551,143.066,-22.949
1584598336.997,-28.320,33.691,40.039,-97.656,-21.484
1584598337.001,-57.617,33.203,36.133,-144.531,-2.930
1584598337.005,28.809,38.086,40.039,93.750,-3.906
1584598337.009,77.148,42.480,44.922,192.871,50.781
1584598337.013,2.930,38.574,39.551,-12.207,38.574
1584598337.017,-68.359,31.738,36.133,-157.227,11.719
1584598337.020,-1.953,36.133,40.039,45.898,31.250
1584598337.024,70.312,38.086,43.457,201.660,20.020
1584598337.028,21.973,32.227,41.016,41.504,10.742
1584598337.032,-69.336,34.180,36.133,-171.875,6.836
1584598337.036,-33.691,37.109,34.668,-38.086,0.488
1584598337.040,55.664,39.062,38.086,179.688,43.945
1584598337.044,48.828,35.156,39.551,110.840,37.109
1584598337.048,-54.688,29.785,35.156,-147.949,4.883
1584598337.052,-62.988,34.180,34.668,-121.094,2.930
1584598337.056,42.480,41.016,39.062,142.090,5.859
1584598337.060,75.684,40.527,39.062,183.105,63.965
1584598337.063,-22.949,31.738,34.668,-72.266,71.289
1584598337.067,-69.336,32.227,34.668,-155.762,67.871
1584598337.071,18.066,37.109,37.109,84.961,67.383
1584598337.075,83.984,35.156,37.598,206.055,60.059
1584598337.079,18.555,32.715,34.668,11.719,45.898
1584598337.083,-63.477,37.109,30.762,-171.387,25.879
1584598337.087,-4.883,41.016,33.203,13.184,50.293
1584598337.091,78.125,36.621,35.156,200.195,54.688
1584598337.095,47.363,35.645,35.156,71.289,-1.953
1584598337.099,-55.176,35.156,35.645,-165.039,16.602
1584598337.102,-34.668,34.668,37.109,-59.570,17.090
1584598337.106,64.453,38.574,37.598,177.246,-44.922
1584598337.110,65.918,38.574,38.574,148.926,-34.180
1584598337.114,-38.574,36.621,37.109,-108.398,1.465
1584598337.118,-53.223,38.574,34.668,-121.094,89.355
1584598337.122,47.363,42.969,37.598,137.207,101.562
1584598337.126,86.914,42.969,39.062,196.289,35.156
1584598337.130,-3.906,37.598,35.156,-56.152,7.812
1584598337.134,-62.988,30.762,28.809,-173.828,11.230
1584598337.138,38.574,39.551,28.809,64.941,10.254
1584598337.142,127.441,47.363,41.016,228.516,5.371
1584598337.145,36.621,34.668,49.805,39.062,27.344
1584598337.149,-81.543,26.367,44.434,-185.059,30.273
1584598337.153,-29.297,25.391,46.387,-21.484,1.953
1584598337.157,63.477,28.320,52.734,192.383,75.195
1584598337.161,41.016,29.785,52.246,97.168,91.309
1584598337.165,-60.547,22.461,49.805,-152.832,29.785
1584598337.169,-43.457,20.508,50.781,-79.102,4.883
1584598337.173,52.246,22.461,59.082,166.016,23.926
1584598337.177,57.617,18.066,60.059,159.180,19.043
1584598337.181,-45.410,12.695,53.223,-102.051,-0.488
1584598337.185,-74.707,12.207,54.688,-142.578,53.711
1584598337.188,29.785,19.531,58.105,124.512,10.254
1584598337.192,81.055,23.926,55.176,212.891,-2.930
1584598337.196,-12.695,18.066,48.340,-25.879,23.438
1584598337.200,-82.031,16.602,45.898,-157.227,42.969
1584598337.204,-7.324,23.438,48.828,61.035,76.660
1584598337.208,63.477,22.949,52.246,209.961,80.566
1584598337.212,15.625,16.113,50.781,41.016,35.645
1584598337.216,-66.895,16.602,45.898,-167.480,2.930
1584598337.220,-19.043,22.461,47.363,-12.207,27.832
1584598337.224,71.289,24.902,49.805,201.172,-0.488
1584598337.227,56.641,24.902,48.828,117.188,20.508
1584598337.231,-44.922,26.855,45.410,-130.371,49.805
1584598337.235,-48.340,20.020,35.645,-86.914,1.953
1584598337.239,39.551,8.301,29.785,145.996,27.344
1584598337.243,43.457,-2.441,18.066,133.301,77.148
1584598337.247,-74.707,-20.996,-5.371,-132.324,41.992
1584598337.251,-126.465,-46.387,-27.832,-199.219,23.926
1584598337.255,-52.246,-59.082,-40.527,28.809,59.082
1584598337.259,-19.531,-64.941,-49.805,101.074,54.199
1584598337.263,-105.469,-76.660,-62.012,-124.512,13.184
1584598337.267,-181.641,-87.402,-75.195,-270.020,1.953
1584598337.270,-122.070,-92.773,-82.031,-77.148,-3.418
1584598337.274,-54.199,-93.750,-83.008,68.848,4.883
1584598337.278,-104.980,-98.633,-86.914,-84.961,52.734
1584598337.282,-193.848,-104.004,-90.332,-290.039,26.855
1584598337.286,-157.227,-105.469,-89.844,-171.387,9.277
1584598337.290,-65.918,-101.562,-85.938,38.574,8.789
1584598337.294,-78.125,-98.633,-81.543,-18.066,7.812
1584598337.298,-178.223,-101.562,-83.496,-257.324,61.523
1584598337.302,-172.363,-96.191,-83.984,-218.262,22.461
1584598337.306,-71.289,-84.961,-77.148,26.367,-21.484
1584598337.310,-44.434,-79.102,-72.266,48.340,11.230
1584598337.313,-134.277,-78.125,-75.195,-184.570,25.391
1584598337.317,-169.922,-74.219,-74.219,-249.512,73.242
1584598337.321,-73.730,-64.453,-66.406,-18.066,35.156
1584598337.325,-13.672,-58.594,-60.547,95.703,3.906
1584598337.329,-85.938,-62.500,-61.035,-96.680,38.086
1584598337.333,-155.762,-63.477,-59.570,-258.301,40.039
1584598337.337,-88.379,-50.293,-50.781,-65.430,43.945
1584598337.341,-8.301,-42.969,-47.363,110.352,-9.766
1584598337.345,-41.992,-41.504,-44.922,-14.648,-25.391
1584598337.349,-130.371,-40.527,-42.480,-236.328,-14.160
1584598337.352,-98.145,-35.156,-38.574,-119.629,12.207
1584598337.356,-7.812,-28.320,-30.762,113.770,28.809
1584598337.360,-8.789,-28.320,-29.785,68.359,39.551
1584598337.364,-102.051,-29.297,-32.227,-182.129,-0.488
1584598337.368,-113.281,-26.855,-30.273,-174.316,25.391
1584598337.372,-14.160,-20.020,-25.391,77.148,27.832
1584598337.376,20.996,-18.555,-24.902,116.699,-3.418
1584598337.380,-71.777,-18.066,-26.855,-121.094,31.250
1584598337.384,-124.023,-14.160,-24.414,-205.078,-1.953
1584598337.388,-38.574,-12.695,-20.996,27.344,9.766
1584598337.392,27.344,-11.230,-20.508,151.855,24.902
1584598337.395,-37.598,-12.695,-22.461,-35.156,59.570
1584598337.399,-119.141,-18.555,-21.484,-220.703,47.363
1584598337.403,-63.477,-14.648,-14.648,-50.781,33.691
1584598337.407,21.484,-5.859,-10.742,149.414,37.109
1584598337.411,-2.930,-6.348,-9.766,45.410,16.113
1584598337.415,-103.027,-9.766,-9.766,-205.078,19.043
1584598337.419,-89.355,-6.836,-7.324,-130.371,35.156
1584598337.423,14.160,-0.488,-1.465,121.582,50.293
1584598337.427,36.621,7.812,0.488,121.094,26.855
1584598337.431,-64.941,7.324,-3.418,-131.836,26.367
1584598337.435,-99.609,5.371,-4.883,-180.176,64.453
1584598337.438,-0.977,10.742,0.488,69.824,62.012
1584598337.442,51.758,11.230,6.836,162.109,19.043
1584598337.446,-37.598,5.371,4.395,-62.012,41.992
1584598337.450,-105.469,4.883,0.000,-200.195,43.945
1584598337.454,-23.438,12.207,3.418,9.766,12.207
1584598337.458,54.688,11.719,4.883,172.363,3.906
1584598337.462,-2.930,2.441,0.977,12.695,-18.066
1584598337.466,-91.309,-1.953,-6.836,-211.914,-25.391
1584598337.470,-28.320,6.348,-5.859,-60.547,-29.297
1584598337.474,65.918,13.184,6.348,177.734,36.133
1584598337.477,18.066,3.418,7.324,91.309,-2.930
1584598337.481,-112.305,-7.324,1.953,-187.012,-35.156
1584598337.485,-106.445,-7.324,4.395,-144.043,55.176
1584598337.489,8.789,-2.930,8.301,125.488,43.945
1584598337.493,44.434,-2.441,9.277,144.531,-36.133
1584598337.497,-55.176,-6.836,7.324,-113.770,-49.316
1584598337.501,-102.539,-12.207,6.836,-175.293,33.691
1584598337.505,-19.531,-14.648,9.766,68.359,67.383
1584598337.509,37.598,-14.160,9.277,173.828,82.031
1584598337.513,-33.203,-13.184,4.395,-49.805,54.199
1584598337.517,-110.352,-10.254,3.418,-209.473,10.742
1584598337.520,-42.969,-7.812,6.836,2.441,53.223
1584598337.524,41.504,-3.906,7.812,174.316,70.312
1584598337.528,-5.371,-5.371,5.859,28.809,41.992
1584598337.532,-104.980,-8.789,3.906,-202.637,5.859
1584598337.536,-68.359,-4.395,4.395,-77.148,22.461
1584598337.540,30.273,2.441,7.324,157.227,36.621
1584598337.544,25.879,1.953,7.324,103.027,17.090
1584598337.548,-80.078,-2.441,4.395,-151.367,13.672
1584598337.552,-85.449,-2.441,6.348,-127.930,70.312
1584598337.556,14.160,1.953,10.254,114.746,104.492
1584598337.560,44.434,5.859,9.277,140.625,28.809
1584598337.563,-46.387,5.371,9.277,-94.727,44.922
1584598337.567,-92.285,4.883,9.766,-172.363,51.270
1584598337.571,-6.836,8.301,10.254,58.594,8.301
1584598337.575,53.223,8.301,12.695,170.410,27.344
1584598337.579,-13.672,7.812,9.277,-26.367,24.414
1584598337.583,-89.844,8.789,6.836,-193.359,53.711
1584598337.587,-27.344,11.230,12.207,-1.465,91.797
1584598337.591,54.688,12.207,17.578,176.758,53.223
1584598337.595,19.043,8.789,15.625,45.410,28.809
1584598337.599,-73.730,4.395,11.230,-177.734,31.738
1584598337.602,-42.969,6.836,12.207,-78.613,37.598
1584598337.606,47.852,14.648,17.090,146.484,40.527
1584598337.610,40.039,14.160,18.555,110.840,88.379
1584598337.614,-58.594,7.324,17.578,-133.789,96.680
1584598337.618,-65.918,7.324,19.531,-124.023,35.645
1584598337.622,30.762,12.695,19.531,122.070,-30.273
1584598337.626,58.594,14.648,20.508,162.109,-1.953
1584598337.630,-34.668,10.742,19.531,-78.125,-1.465
1584598337.634,-77.148,11.230,19.043,-166.992,2.930
1584598337.638,8.789,20.020,26.367,68.359,42.480
1584598337.642,63.477,19.043,31.738,185.547,-7.324
1584598337.645,0.977,13.184,31.738,0.977,13.672
1584598337.649,-76.172,12.695,27.832,-176.270,95.215
1584598337.653,-25.879,18.066,29.785,-11.230,41.016
1584598337.657,54.688,20.996,37.598,183.105,4.883
1584598337.661,25.879,17.090,36.621,63.965,-29.785
1584598337.665,-75.195,17.578,31.250,-181.152,-44.434
1584598337.669,-53.223,22.949,33.203,-83.984,31.250
1584598337.673,49.316,25.879,39.551,158.691,42.480
1584598337.677,58.594,22.949,39.551,131.836,-1.465
1584598337.681,-40.039,18.066,37.598,-118.164,-7.324
1584598337.685,-66.895,17.578,39.062,-139.160,4.395
1584598337.688,23.926,19.531,43.457,108.887,42.480
1584598337.692,66.406,20.020,44.922,169.922,45.898
1584598337.696,-20.996,16.602,40.039,-60.547,-26.855
1584598337.700,-81.055,19.043,38.574,-177.246,15.625
1584598337.704,1.953,24.902,43.945,40.527,87.402
1584598337.708,73.730,25.391,44.922,181.641,89.844
1584598337.712,13.672,23.926,40.039,14.160,101.562
1584598337.716,-74.707,19.531,36.621,-181.152,83.496
1584598337.720,-30.273,18.555,38.086,-36.621,36.621
1584598337.724,61.035,22.461,42.969,187.012,84.961
1584598337.727,48.828,21.484,46.387,130.859,96.680
1584598337.731,-60.059,20.020,39.551,-144.043,5.859
1584598337.735,-67.383,26.367,30.273,-129.883,3.906
1584598337.739,31.250,28.320,34.668,123.047,23.438
1584598337.743,64.941,25.879,37.598,159.668,4.395
1584598337.747,-31.738,20.996,32.715,-91.309,10.254
1584598337.751,-70.801,17.578,32.715,-168.945,4.395
1584598337.755,27.344,23.438,35.156,82.031,11.719
1584598337.759,86.914,30.273,36.133,206.055,48.828
1584598337.763,6.836,27.832,35.645,-8.301,-5.371
1584598337.767,-69.824,24.902,33.203,-180.664,1.953
1584598337.770,0.488,30.762,35.156,19.043,20.020
1584598337.774,83.008,33.203,39.062,206.543,-12.207
1584598337.778,37.598,28.809,35.645,67.383,1.953
1584598337.782,-63.965,27.344,33.203,-172.852,9.766
1584598337.786,-29.297,27.344,34.668,-55.176,19.531
1584598337.790,70.312,31.250,38.574,183.594,40.527
1584598337.794,62.988,30.762,37.109,132.812,52.734
1584598337.798,-43.457,26.367,30.273,-137.695,-5.859
1584598337.802,-46.875,31.250,31.738,-128.418,-13.672
1584598337.806,59.082,35.645,34.180,139.160,29.297
1584598337.810,86.914,35.645,31.738,186.035,38.574
1584598337.813,-13.184,30.762,29.297,-67.871,5.371
1584598337.817,-62.988,27.344,28.320,-157.715,13.672
1584598337.821,20.020,31.738,30.762,79.102,17.090
1584598337.825,81.055,34.180,32.715,199.219,-23.926
1584598337.829,10.742,29.785,27.832,-2.441,2.930
1584598337.833,-71.777,24.902,25.391,-179.199,41.992
1584598337.837,-5.859,28.320,30.762,5.859,28.320
1584598337.841,80.078,29.785,33.691,190.918,-15.137
1584598337.845,37.598,27.832,31.250,69.336,1.953
1584598337.849,-69.336,27.344,29.785,-169.434,1.953
1584598337.852,-42.969,28.809,30.762,-72.754,11.719
1584598337.856,57.129,29.785,31.738,169.922,27.832
1584598337.860,58.594,27.344,31.738,141.602,-22.461
1584598337.864,-44.922,24.414,30.762,-114.746,-11.719
1584598337.868,-64.453,23.926,28.320,-127.930,18.066
1584598337.872,34.180,27.344,29.785,121.582,-16.602
1584598337.876,68.848,28.320,33.203,181.152,1.953
1584598337.880,-23.438,25.391,30.762,-61.035,32.227
1584598337.884,-74.707,25.391,28.320,-172.852,60.059
1584598337.888,8.789,27.832,28.320,47.852,66.895
1584598337.892,74.707,30.273,32.715,188.965,43.457
1584598337.895,10.254,29.297,29.785,16.602,11.230
1584598337.899,-75.195,28.809,23.438,-177.246,49.316
1584598337.903,-17.578,29.297,24.902,-13.184,29.785
1584598337.907,69.824,28.320,27.344,185.547,-13.672
1584598337.911,40.527,27.832,26.367,87.402,72.754
1584598337.915,-61.523,25.391,21.484,-160.156,50.293
1584598337.919,-47.852,29.297,23.926,-83.496,60.059
1584598337.923,46.875,33.203,29.297,166.504,77.148
1584598337.927,55.176,28.320,27.344,145.996,-7.812
1584598337.931,-48.828,22.949,21.973,-124.512,2.441
1584598337.935,-74.219,22.949,22.461,-157.715,0.488
1584598337.938,23.926,30.762,25.391,99.609,-12.695
1584598337.942,67.871,31.738,25.391,179.688,34.668
1584598337.946,-19.043,26.855,24.902,-49.805,47.852
1584598337.950,-79.102,26.367,24.902,-172.363,16.113
1584598337.954,3.906,29.297,29.785,51.758,1.465
1584598337.958,74.219,29.785,32.227,194.336,-2.441
1584598337.962,14.648,26.367,30.762,16.113,24.902
1584598337.966,-67.871,26.367,25.879,-181.641,56.152
1584598337.970,-19.043,30.762,26.367,-24.902,3.906
1584598337.974,63.477,31.250,30.762,177.734,-8.301
1584598337.977,41.992,29.297,30.273,83.984,6.348
1584598337.981,-59.570,28.809,33.691,-152.832,43.457
1584598337.985,-46.875,31.250,35.156,-84.961,48.340
1584598337.989,52.246,37.109,33.691,163.086,30.273
1584598337.993,63.477,37.598,30.762,155.762,5.371
1584598337.997,-30.762,30.762,29.297,-99.121,-31.250
1584598338.001,-63.477,27.344,29.785,-136.719,7.812
1584598338.005,25.391,31.738,30.762,99.609,27.832
1584598338.009,74.219,35.156,31.250,177.734,43.457
1584598338.013,-9.766,27.832,30.762,-34.668,59.082
1584598338.017,-71.777,20.996,32.227,-157.227,49.805
1584598338.020,14.648,27.344,32.715,57.129,49.316
1584598338.024,76.172,33.691,26.367,188.965,2.930
1584598338.028,6.836,32.227,20.996,15.625,1.953
1584598338.032,-86.914,28.809,20.996,-195.312,35.156
1584598338.036,-43.457,29.785,22.461,-68.359,1.465
1584598338.040,54.199,35.156,26.367,151.855,47.363
1584598338.044,45.410,31.250,29.785,98.145,39.551
1584598338.048,-54.199,23.438,26.855,-147.949,18.555
1584598338.052,-57.129,25.879,29.297,-115.234,39.551
1584598338.056,38.086,30.762,34.180,137.207,17.578
1584598338.060,63.965,32.227,35.156,165.039,23.926
1584598338.063,-31.738,25.879,29.297,-83.496,-11.230
1584598338.067,-71.289,27.344,24.902,-166.016,17.090
1584598338.071,16.602,33.203,27.832,69.336,25.879
1584598338.075,81.055,34.668,31.738,193.848,39.062
1584598338.079,9.766,28.809,29.785,-0.488,38.086
1584598338.083,-80.078,21.484,26.367,-197.266,-35.156
1584598338.087,-16.602,27.832,28.809,-15.137,-21.973
1584598338.091,77.148,35.156,33.203,200.195,22.949
1584598338.095,47.363,33.203,33.203,92.285,20.996
1584598338.099,-59.570,28.809,28.809,-161.621,11.719
1584598338.102,-35.645,32.227,30.762,-66.895,72.754
1584598338.106,64.941,34.668,33.203,181.641,60.059
1584598338.110,67.871,33.203,33.203,157.227,58.594
1584598338.114,-38.574,30.273,31.738,-111.328,56.641
1584598338.118,-60.059,31.738,26.855,-135.742,22.461
1584598338.122,38.086,38.574,28.320,126.465,47.852
1584598338.126,83.496,34.180,31.738,187.988,30.273
1584598338.130,-8.301,29.297,26.367,-61.523,-1.465
1584598338.134,-72.754,31.738,23.926,-171.387,-5.859
1584598338.138,10.742,35.156,29.785,66.406,64.453
1584598338.142,81.543,37.109,30.273,202.637,77.148
1584598338.145,17.578,34.668,26.367,15.625,13.184
1584598338.149,-72.754,33.203,26.367,-180.176,-8.301
1584598338.153,-23.926,32.715,29.297,-18.066,-23.926
1584598338.157,65.918,34.668,31.738,189.941,11.230
1584598338.161,44.434,33.203,31.250,90.332,36.133
1584598338.165,-58.105,27.832,28.809,-163.086,23.438
1584598338.169,-41.504,29.785,25.879,-92.773,2.930
1584598338.173,60.547,34.668,27.344,144.531,-1.465
1584598338.177,72.266,38.574,32.227,147.461,58.105
1584598338.181,-32.715,35.156,29.785,-93.262,66.895
1584598338.185,-58.594,32.227,28.320,-139.160,2.441
1584598338.188,37.598,35.645,31.738,110.352,13.672
1584598338.192,78.125,34.668,34.180,193.848,57.129
1584598338.196,-7.324,28.320,30.273,-32.715,34.668
1584598338.200,-74.219,28.320,26.367,-168.457,48.340
1584598338.204,1.953,32.715,27.832,43.945,23.438
1584598338.208,78.613,32.715,30.762,201.660,-25.879
1584598338.212,25.391,29.785,28.809,32.715,28.809
1584598338.216,-65.918,26.855,24.902,-183.594,47.852
1584598338.220,-20.020,29.785,27.832,-41.504,14.648
1584598338.224,67.383,34.668,32.715,187.500,41.504
1584598338.227,45.898,30.273,35.156,110.840,66.895
1584598338.231,-58.594,27.344,29.785,-151.367,28.320
1584598338.235,-51.270,31.250,28.809,-96.191,14.648
1584598338.239,49.316,33.203,34.668,157.715,46.875
1584598338.243,67.383,32.227,34.180,164.062,55.664
1584598338.247,-26.367,28.809,30.762,-85.938,28.809
1584598338.251,-61.523,29.297,31.250,-136.719,12.695
1584598338.255,28.809,34.668,36.133,107.910,15.137
1584598338.259,78.613,36.133,36.621,192.871,31.738
1584598338.263,0.488,33.203,32.715,-33.691,25.879
1584598338.267,-62.500,34.180,31.250,-168.457,-15.137
1584598338.270,8.301,38.086,32.227,43.945,4.395
1584598338.274,79.590,39.062,35.156,203.613,34.180
1584598338.278,29.297,33.691,36.133,50.293,35.156
1584598338.282,-65.430,29.785,34.180,-164.062,-0.488
1584598338.286,-25.879,31.250,36.133,-26.855,11.719
1584598338.290,63.477,30.762,39.551,185.547,22.461
1584598338.294,50.293,30.273,37.598,116.699,30.273
1584598338.298,-47.363,30.273,34.180,-127.441,44.922
1584598338.302,-44.922,32.227,34.668,-92.773,40.527
1584598338.306,49.805,27.832,39.062,154.297,18.555
1584598338.310,85.938,25.391,44.922,181.641,-18.066
1584598338.313,1.465,36.621,41.504,-57.617,18.555
1584598338.317,-79.102,40.039,30.273,-161.133,94.727
1584598338.321,-14.160,38.086,32.715,53.711,26.367
1584598338.325,58.105,39.551,36.133,171.387,-15.137
1584598338.329,-9.766,40.039,31.250,-31.738,30.762
1584598338.333,-95.215,36.621,25.391,-197.754,13.184
1584598338.337,-31.250,37.598,25.391,-11.230,10.742
1584598338.341,50.293,41.992,31.250,163.086,10.254
1584598338.345,0.000,37.109,30.762,23.926,21.484
1584598338.349,-100.098,27.344,28.809,-191.895,37.598
1584598338.352,-61.035,28.809,27.344,-79.102,30.762
1584598338.356,39.551,36.621,31.250,138.672,88.867
1584598338.360,41.016,34.180,33.691,104.492,74.707
1584598338.364,-51.758,28.320,31.250,-135.742,-11.719
1584598338.368,-61.035,31.738,32.227,-124.512,28.320
1584598338.372,32.715,36.621,35.156,127.930,31.250
1584598338.376,62.012,35.645,33.691,164.551,11.719
1584598338.380,-29.785,28.809,28.809,-76.172,47.852
1584598338.384,-77.637,26.855,24.902,-166.992,55.664
1584598338.388,5.859,33.691,29.297,61.523,42.480
1584598338.392,66.895,34.180,35.645,188.477,40.039
1584598338.395,1.465,31.738,33.691,-6.836,48.828
1584598338.399,-71.289,31.250,30.273,-190.918,29.297
1584598338.403,-12.207,33.691,31.738,-9.277,49.316
1584598338.407,67.871,34.180,36.621,188.477,47.363
1584598338.411,39.062,32.227,34.668,73.242,26.855
1584598338.415,-57.129,30.762,32.227,-159.180,31.738
1584598338.419,-33.691,32.715,36.133,-71.777,-0.977
1584598338.423,63.477,33.691,39.062,158.691,8.301
1584598338.427,67.871,30.273,39.551,138.672,43.457
1584598338.431,-31.738,27.832,34.180,-109.863,26.855
1584598338.435,-54.688,30.273,31.738,-133.301,33.691
1584598338.438,38.574,34.180,36.621,113.770,54.688
1584598338.442,83.984,35.645,39.062,187.988,10.742
1584598338.446,0.000,32.227,36.621,-40.039,7.324
1584598338.450,-65.430,31.250,37.598,-166.016,37.109
1584598338.454,8.789,33.203,38.574,46.875,17.578
1584598338.458,79.102,34.180,36.133,195.801,9.766
1584598338.462,22.949,33.691,35.156,35.156,36.133
1584598338.466,-67.871,30.762,32.227,-171.875,75.195
1584598338.470,-21.973,31.250,32.227,-25.879,81.055
1584598338.474,69.824,33.691,34.668,188.477,61.035
1584598338.477,53.711,32.715,31.250,116.699,46.875
1584598338.481,-54.688,29.785,26.855,-134.277,38.574
1584598338.485,-50.781,32.227,25.879,-98.145,45.410
1584598338.489,52.246,37.598,30.762,151.367,77.148
1584598338.493,73.242,36.621,35.156,169.434,40.527
1584598338.497,-28.320,32.227,31.738,-89.355,-21.973
1584598338.501,-68.359,29.785,27.832,-156.738,-13.184
1584598338.505,24.902,33.203,31.738,85.938,8.301
1584598338.509,83.984,37.598,36.133,194.824,-35.645
1584598338.513,5.859,33.691,33.691,-16.113,-0.488
1584598338.517,-72.754,30.762,28.320,-178.711,26.855
1584598338.520,1.465,39.062,25.391,26.367,46.875
1584598338.524,90.820,45.410,29.785,215.820,116.699
1584598338.528,30.273,35.645,32.715,61.523,43.457
1584598338.532,-82.520,29.297,30.762,-186.035,5.859
1584598338.536,-40.039,30.273,32.715,-60.547,43.945
1584598338.540,61.035,30.273,34.668,182.617,82.031
1584598338.544,53.223,25.879,31.250,126.465,30.273
1584598338.548,-44.922,25.391,29.297,-145.508,-21.973
1584598338.552,-44.434,33.691,29.297,-117.676,17.090
1584598338.556,51.270,38.086,32.227,145.508,-15.625
1584598338.560,76.172,34.180,36.133,180.664,-10.254
1584598338.563,-18.555,29.785,33.203,-66.895,-18.066
1584598338.567,-62.012,28.809,30.762,-147.461,-31.738
1584598338.571,26.367,30.762,34.668,92.285,-35.156
1584598338.575,81.543,32.227,40.039,212.402,11.230
1584598338.579,4.883,29.785,38.574,11.719,22.949
1584598338.583,-72.266,25.391,34.180,-163.086,-43.457
1584598338.587,-6.836,29.785,38.086,22.949,27.344
1584598338.591,79.590,32.227,41.504,208.008,39.551
1584598338.595,39.062,28.809,38.574,75.195,14.648
1584598338.599,-56.152,31.250,37.109,-157.227,36.133
1584598338.602,-24.414,31.250,37.598,-49.316,2.930
1584598338.606,70.312,34.180,39.551,187.012,34.668
1584598338.610,72.754,33.691,41.992,153.809,72.266
1584598338.614,-31.738,26.855,37.109,-102.539,43.945
1584598338.618,-46.387,26.855,34.180,-109.375,25.879
1584598338.622,54.199,32.715,38.086,141.602,64.453
1584598338.626,87.402,33.691,40.527,197.266,95.703
1584598338.630,-2.441,27.832,38.574,-39.551,91.797
1584598338.634,-58.105,26.367,35.156,-144.043,84.473
1584598338.638,19.531,29.297,37.598,69.824,69.336
1584598338.642,85.938,31.250,40.039,201.172,60.547
1584598338.645,20.996,30.273,37.109,30.273,31.738
1584598338.649,-61.523,32.715,31.738,-158.203,18.555
1584598338.653,-1.953,37.598,35.645,5.859,61.523
1584598338.657,81.055,37.109,40.039,202.148,54.688
1584598338.661,51.758,35.156,38.574,100.586,36.133
1584598338.665,-49.805,32.227,36.133,-136.230,79.590
1584598338.669,-34.180,34.180,34.668,-65.430,17.090
1584598338.673,62.988,37.109,38.086,165.527,5.859
1584598338.677,72.754,33.203,37.598,157.715,20.020
1584598338.681,-31.738,26.855,32.227,-105.469,11.230
1584598338.685,-61.035,29.297,30.273,-144.043,36.133
1584598338.688,37.598,39.551,35.645,114.746,41.992
1584598338.692,84.961,38.574,35.156,193.359,92.285
1584598338.696,-2.930,29.297,30.273,-41.992,44.434
1584598338.700,-63.477,33.203,27.344,-166.992,27.832
1584598338.704,10.742,39.551,29.785,58.105,96.191
1584598338.708,75.684,38.574,35.645,203.125,75.195
1584598338.712,16.602,35.645,33.691,23.438,10.254
1584598338.716,-69.824,31.250,32.227,-169.434,-1.465
1584598338.720,-19.531,33.691,32.715,-12.695,18.555
1584598338.724,66.406,33.691,32.227,181.641,22.949
1584598338.727,44.434,28.809,30.762,83.008,41.016
1584598338.731,-56.152,29.297,29.785,-160.156,48.828
1584598338.735,-40.039,31.738,36.621,-86.914,39.062
1584598338.739,57.617,33.691,40.527,157.227,5.371
1584598338.743,66.895,31.738,40.039,150.391,4.883
1584598338.747,-29.785,28.320,38.574,-87.891,45.898
1584598338.751,-58.105,29.785,37.598,-123.047,23.926
1584598338.755,37.109,33.203,42.480,117.676,11.230
1584598338.759,84.473,31.250,45.898,195.312,36.621
1584598338.763,-0.977,26.367,41.504,-22.949,17.578
1584598338.767,-64.941,25.391,40.039,-152.344,14.648
1584598338.770,11.719,30.762,42.480,51.758,5.371
1584598338.774,80.078,34.668,41.504,198.730,5.859
1584598338.778,25.879,31.250,40.527,38.086,25.391
1584598338.782,-61.035,26.855,39.062,-163.574,40.039
1584598338.786,-18.066,27.344,39.062,-30.273,33.691
1584598338.790,69.336,36.133,41.992,175.781,42.969
1584598338.794,57.129,35.645,43.457,111.816,21.973
1584598338.798,-45.410,23.438,40.039,-124.512,-27.832
1584598338.802,-40.039,20.996,41.992,-74.707,-7.812
1584598338.806,75.684,28.320,48.828,188.965,46.387
1584598338.810,92.773,38.086,43.457,191.895,39.062
1584598338.813,-27.832,36.133,33.203,-86.426,11.230
1584598338.817,-73.242,32.715,31.250,-160.645,13.672
1584598338.821,23.438,41.016,34.668,79.590,14.648
1584598338.825,82.520,46.875,37.598,184.570,1.465
1584598338.829,3.906,41.504,35.156,-20.508,1.465
1584598338.833,-64.453,40.039,30.273,-181.152,9.766
1584598338.837,6.348,50.293,29.297,9.277,27.344
1584598338.841,78.125,51.270,32.227,181.641,10.742
1584598338.845,35.156,42.969,34.180,57.617,7.324
1584598338.849,-58.105,38.086,31.250,-160.645,18.555
1584598338.852,-28.320,40.527,32.715,-52.734,8.789
1584598338.856,63.965,44.922,37.598,170.898,7.324
1584598338.860,61.035,41.504,37.598,124.023,58.105
1584598338.864,-29.785,38.574,33.691,-117.676,45.410
1584598338.868,-40.039,41.504,33.691,-103.516,39.551
1584598338.872,50.293,43.457,37.109,141.602,47.363
1584598338.876,81.055,41.016,39.062,176.758,69.824
1584598338.880,-8.301,37.109,36.133,-60.547,79.590
1584598338.884,-56.641,37.598,32.715,-142.578,37.109
1584598338.888,24.414,37.598,36.133,85.449,8.789
1584598338.892,86.426,36.621,39.062,197.754,16.602
1584598338.895,14.648,34.668,36.621,7.324,31.738
1584598338.899,-69.824,34.668,34.180,-164.062,21.484
1584598338.903,-8.301,38.086,34.668,12.207,15.625
1584598338.907,75.195,38.086,39.062,193.359,16.113
1584598338.911,48.340,35.645,38.086,83.008,45.898
1584598338.915,-45.898,34.180,34.180,-150.879,40.527
1584598338.919,-29.785,37.109,34.668,-69.336,-26.855
1584598338.923,66.895,39.062,35.645,162.109,-29.785
1584598338.927,75.195,39.551,37.598,145.996,66.406
1584598338.931,-26.855,35.156,37.598,-93.262,60.059
1584598338.935,-49.805,35.156,37.598,-127.930,5.859
1584598338.938,47.363,44.922,37.109,115.234,35.645
1584598338.942,86.914,45.898,36.133,191.406,23.438
1584598338.946,-3.906,38.574,35.645,-36.133,33.203
1584598338.950,-64.941,34.668,35.156,-158.691,56.152
1584598338.954,9.766,38.574,38.574,58.594,55.176
1584598338.958,80.566,40.527,40.527,204.102,5.859
1584598338.962,23.926,36.621,38.574,29.297,12.695
1584598338.966,-64.941,33.691,33.691,-182.129,57.129
1584598338.970,-13.184,37.598,32.227,-40.527,-41.016
1584598338.974,77.148,43.457,36.133,178.711,-41.016
1584598338.977,58.105,41.992,34.668,105.957,28.809
1584598338.981,-45.410,38.086,30.762,-145.996,36.133
1584598338.985,-44.434,38.574,33.691,-94.727,41.016
1584598338.989,53.711,41.992,37.109,161.133,35.156
1584598338.993,72.754,39.551,35.156,170.898,13.184
1584598338.997,-29.785,34.180,33.691,-84.473,-5.371
1584598339.001,-63.477,36.621,35.156,-142.090,-18.555
1584598339.005,29.785,41.016,36.133,100.586,34.668
1584598339.009,83.984,41.504,34.668,197.266,88.867
1584598339.013,4.395,38.086,33.691,-27.832,30.273
1584598339.017,-66.895,36.621,35.156,-176.270,29.785
1584598339.020,8.301,41.016,37.598,43.945,94.238
1584598339.024,85.449,41.016,38.086,210.449,54.688
1584598339.028,33.691,36.621,37.598,52.246,4.883
1584598339.032,-62.500,36.133,33.691,-169.434,21.484
1584598339.036,-19.531,37.109,32.227,-34.668,18.555
1584598339.040,68.359,40.039,33.691,186.523,43.945
1584598339.044,52.734,39.062,32.715,112.305,51.758
1584598339.048,-48.828,34.668,31.738,-143.066,4.883
1584598339.052,-50.293,32.227,30.762,-101.074,-0.977
1584598339.056,48.340,32.227,32.715,145.020,4.883
1584598339.060,66.895,31.738,37.109,157.227,-46.387
1584598339.063,-32.715,31.738,36.133,-82.520,-37.598
1584598339.067,-69.824,34.180,32.715,-135.742,16.113
1584598339.071,23.926,37.598,33.691,100.098,21.973
1584598339.075,76.172,38.574,37.109,188.965,10.254
1584598339.079,0.000,36.621,34.668,-22.949,7.812
1584598339.083,-66.406,34.668,31.250,-171.875,-2.930
1584598339.087,3.906,36.133,34.668,33.203,15.137
1584598339.091,75.195,38.086,38.574,190.918,20.508
1584598339.095,30.273,35.156,37.598,41.504,30.762
1584598339.099,-56.152,32.715,36.133,-159.180,4.883
1584598339.102,-21.484,32.715,36.133,-38.574,-11.719
1584598339.106,62.500,38.086,39.062,177.246,49.316
1584598339.110,48.340,40.039,40.039,114.258,23.438
1584598339.114,-44.922,33.691,36.133,-126.465,-1.953
1584598339.118,-44.434,35.156,33.203,-85.449,12.207
1584598339.122,46.875,42.480,36.133,153.809,41.504
1584598339.126,66.406,39.062,37.598,161.621,32.715
1584598339.130,-26.855,30.762,34.180,-76.660,5.859
1584598339.134,-59.082,32.715,33.203,-137.207,24.902
1584598339.138,29.297,38.574,36.621,95.703,31.738
1584598339.142,73.730,36.621,39.551,185.059,31.250
1584598339.145,1.953,28.809,37.109,-15.625,-18.066
1584598339.149,-62.012,26.855,36.621,-159.668,-21.973
1584598339.153,4.395,32.227,41.016,33.691,23.926
1584598339.157,73.242,38.574,42.480,200.195,46.387
1584598339.161,23.926,35.156,36.621,49.805,-2.441
1584598339.165,-65.918,31.250,30.762,-181.152,-21.973
1584598339.169,-34.180,36.133,32.715,-66.406,17.090
1584598339.173,62.012,39.551,39.551,172.852,-16.602
1584598339.177,65.918,38.574,38.086,138.672,-2.930
1584598339.181,-32.715,33.691,33.203,-114.746,18.555
1584598339.185,-53.711,33.203,30.273,-127.441,36.133
1584598339.188,38.086,36.133,31.738,119.141,27.832
1584598339.192,77.148,36.621,32.715,176.758,3.906
1584598339.196,-9.277,31.738,31.250,-55.176,17.090
1584598339.200,-63.477,28.809,32.715,-161.621,20.508
1584598339.204,14.160,28.809,36.621,62.012,-7.324
1584598339.208,80.078,30.273,39.062,198.242,20.996
1584598339.212,22.949,32.227,39.062,24.414,61.035
1584598339.216,-61.035,32.227,36.621,-159.180,41.504
1584598339.220,-5.371,36.133,38.574,2.441,62.988
1584598339.224,82.031,39.062,40.527,192.383,26.367
1584598339.227,56.641,38.086,39.062,105.469,48.340
1584598339.231,-42.969,37.598,36.133,-132.812,67.871
1584598339.235,-30.273,38.086,33.203,-73.242,30.762
1584598339.239,65.430,38.574,33.203,162.109,62.988
1584598339.243,77.148,35.645,33.203,158.691,25.879
1584598339.247,-25.391,30.762,32.227,-81.055,18.555
1584598339.251,-56.152,30.762,31.738,-137.695,77.637
1584598339.255,44.922,36.621,33.203,104.980,97.656
1584598339.259,95.215,41.016,33.203,205.566,44.922
1584598339.263,8.301,36.133,30.273,-15.137,20.020
1584598339.267,-64.941,32.227,29.785,-162.109,37.598
1584598339.270,3.906,36.621,33.203,42.969,26.367
1584598339.274,81.055,39.551,37.109,211.426,22.461
1584598339.278,33.203,33.203,37.109,58.105,24.902
1584598339.282,-62.012,27.832,31.738,-171.387,24.902
1584598339.286,-22.949,33.691,31.738,-43.457,4.395
1584598339.290,70.312,39.551,37.598,186.523,34.668
1584598339.294,59.570,34.180,38.574,129.883,41.992
1584598339.298,-45.898,29.297,34.668,-140.137,58.105
1584598339.302,-50.781,35.156,33.691,-119.141,12.207
1584598339.306,52.734,38.574,38.574,149.414,-2.930
1584598339.310,83.008,36.133,37.109,179.688,15.625
1584598339.313,-16.113,31.738,33.691,-76.660,38.086
1584598339.317,-61.523,32.715,35.156,-152.344,87.402
1584598339.321,23.926,36.621,37.598,87.891,50.781
1584598339.325,82.520,36.621,39.062,197.266,-1.953
1584598339.329,9.277,33.691,37.109,-14.648,-38.574
1584598339.333,-72.266,32.227,34.180,-187.988,-1.465
1584598339.337,-6.348,37.109,34.180,6.348,75.684
1584598339.341,76.660,35.156,33.691,190.430,71.289
1584598339.345,36.621,33.691,33.203,57.129,42.969
1584598339.349,-58.594,35.645,29.785,-172.363,28.809
1584598339.352,-34.180,34.668,31.250,-61.523,23.438
1584598339.356,57.129,36.621,35.156,171.875,56.152
1584598339.360,60.059,33.691,35.645,137.695,79.590
1584598339.364,-42.969,28.320,33.203,-120.605,28.809
1584598339.368,-57.617,29.785,31.738,-125.977,-2.930
1584598339.372,42.480,35.156,34.180,130.371,65.918
1584598339.376,80.566,33.691,36.133,180.664,87.402
1584598339.380,-12.207,29.785,34.180,-66.406,38.086
1584598339.384,-70.312,30.762,30.273,-177.246,25.391
1584598339.388,15.625,33.203,31.738,46.387,52.734
1584598339.392,83.496,36.621,36.133,187.500,46.387
1584598339.395,16.113,35.156,35.156,9.277,23.438
1584598339.399,-68.359,28.809,35.156,-178.223,37.598
1584598339.403,-10.254,30.273,35.645,-3.418,25.879
1584598339.407,73.730,37.598,35.156,193.848,43.945
1584598339.411,41.504,31.738,37.109,83.984,36.621
1584598339.415,-62.012,24.414,35.156,-162.598,-12.207
1584598339.419,-40.039,29.297,31.738,-76.172,8.301
1584598339.423,62.988,34.180,35.645,169.922,34.668
1584598339.427,66.895,32.227,37.598,147.949,33.691
1584598339.431,-31.738,26.855,33.691,-113.770,-12.207
1584598339.435,-46.387,31.738,34.668,-126.953,-3.418
1584598339.438,43.457,40.527,40.039,136.230,45.898
1584598339.442,79.102,40.039,41.504,193.359,46.387
1584598339.446,0.000,36.133,38.574,-42.969,44.434
1584598339.450,-52.246,36.133,35.645,-146.973,41.016
1584598339.454,24.414,41.992,38.086,79.102,58.105
1584598339.458,88.867,41.504,43.457,209.473,61.523
1584598339.462,22.461,36.621,40.527,24.414,23.438
1584598339.466,-62.012,38.086,36.621,-161.621,76.172
1584598339.470,-7.812,41.016,38.574,-4.883,61.523
1584598339.474,76.660,41.016,41.016,186.523,43.945
1584598339.477,46.387,37.109,38.574,77.637,60.547
1584598339.481,-55.664,37.109,35.156,-160.156,51.758
1584598339.485,-38.086,40.039,38.574,-76.172,41.016
1584598339.489,50.293,41.504,41.016,161.133,59.082
1584598339.493,58.594,39.062,39.551,143.555,34.668
1584598339.497,-31.250,37.109,37.109,-101.562,-24.414
1584598339.501,-57.129,36.133,38.574,-127.441,-15.137
1584598339.505,31.250,36.133,41.504,118.652,-7.324
1584598339.509,75.195,37.109,43.945,187.988,-19.531
1584598339.513,-3.418,33.203,44.434,-33.203,8.301
1584598339.517,-63.477,32.227,40.527,-158.691,28.809
1584598339.520,6.836,34.180,42.969,45.410,18.066
1584598339.524,71.289,36.133,48.340,192.871,-40.039
1584598339.528,19.531,36.621,50.293,30.273,-64.941
1584598339.532,-68.359,32.715,48.340,-166.016,19.043
1584598339.536,-23.438,34.180,46.875,-25.391,25.879
1584598339.540,65.430,40.039,47.852,177.246,-0.488
1584598339.544,46.875,39.062,47.852,104.004,-10.742
1584598339.548,-48.828,32.227,44.434,-134.766,-14.648
1584598339.552,-38.574,33.691,42.969,-89.355,16.113
1584598339.556,53.223,39.062,46.387,149.414,13.672
1584598339.560,62.500,38.086,47.363,157.715,46.387
1584598339.563,-30.762,33.203,43.945,-79.102,51.270
1584598339.567,-60.547,30.762,42.480,-134.277,12.695
1584598339.571,25.879,36.621,45.410,95.215,75.684
1584598339.575,71.289,37.109,46.875,184.082,51.270
1584598339.579,-4.883,29.785,43.945,-21.973,2.441
1584598339.583,-72.266,31.250,41.992,-170.410,55.664
1584598339.587,-2.441,38.086,45.410,26.367,42.969
1584598339.591,72.754,37.598,47.852,199.219,46.387
1584598339.595,31.250,32.715,44.434,54.199,45.898
1584598339.599,-56.641,29.785,42.969,-159.668,32.715
1584598339.602,-21.484,34.180,42.969,-29.297,15.625
1584598339.606,65.918,38.086,45.410,184.082,6.348
1584598339.610,60.547,29.785,48.340,125.000,21.973
1584598339.614,-29.785,21.973,45.898,-106.445,16.113
1584598339.618,-34.180,32.715,41.992,-83.008,23.438
1584598339.622,39.551,41.992,39.062,136.719,5.371
1584598339.626,50.781,35.156,36.133,144.531,-6.348
1584598339.630,-32.715,33.691,32.715,-89.355,20.508
1584598339.634,-65.430,39.062,34.180,-140.137,15.137
1584598339.638,16.602,40.527,35.645,87.891,0.000
1584598339.642,70.801,40.527,37.598,178.223,25.391
1584598339.645,13.184,39.062,37.598,-7.812,33.203
1584598339.649,-57.617,37.109,35.645,-153.809,68.359
1584598339.653,6.836,41.016,38.086,31.250,55.176
1584598339.657,81.055,42.480,39.062,193.848,-6.836
1584598339.661,38.086,37.109,37.598,67.383,9.766
1584598339.665,-52.734,35.645,34.180,-148.926,46.387
1584598339.669,-21.973,40.039,33.203,-40.527,41.016
1584598339.673,70.801,41.504,35.645,173.340,31.738
1584598339.677,61.523,38.574,36.133,127.441,40.039
1584598339.681,-34.668,35.156,32.715,-102.051,24.902
1584598339.685,-37.109,33.691,32.715,-91.797,4.883
1584598339.688,59.082,36.621,34.180,148.926,52.246
1584598339.692,85.938,37.109,30.762,183.594,28.809
1584598339.696,0.488,32.715,26.367,-47.363,13.184
1584598339.700,-45.898,32.715,27.832,-136.719,65.918
1584598339.704,32.227,36.133,29.785,81.055,42.480
1584598339.708,89.844,37.109,31.250,195.801,47.363
1584598339.712,24.902,33.203,30.762,8.789,92.773
1584598339.716,-53.223,30.762,30.273,-163.574,44.434
1584598339.720,-0.488,36.133,32.227,5.859,63.477
1584598339.724,81.055,40.527,37.109,188.477,72.266
1584598339.727,52.246,35.156,37.598,85.938,-1.953
1584598339.731,-41.504,30.762,33.691,-141.113,37.109
1584598339.735,-25.879,33.203,33.691,-55.664,68.848
1584598339.739,68.359,38.086,36.621,175.293,52.734
1584598339.743,77.148,38.086,34.668,145.020,24.902
1584598339.747,-21.973,33.691,29.297,-100.098,73.730
1584598339.751,-46.387,34.668,28.320,-120.117,108.398
1584598339.755,43.457,38.086,28.320,117.188,62.012
1584598339.759,87.891,39.551,26.855,176.270,30.762
1584598339.763,3.418,33.203,26.855,-50.293,8.789
1584598339.767,-58.105,30.273,28.809,-159.180,4.395
1584598339.770,17.578,34.180,33.203,66.406,41.504
1584598339.774,83.008,37.598,35.156,206.543,93.750
1584598339.778,29.785,31.738,30.273,38.086,46.875
1584598339.782,-57.129,26.855,27.344,-159.180,-33.691
1584598339.786,-12.695,32.227,28.320,-6.348,-38.574
1584598339.790,66.895,36.621,32.227,189.453,-6.348
1584598339.794,45.410,33.203,30.762,98.145,11.719
1584598339.798,-45.898,29.785,27.832,-134.277,63.477
1584598339.802,-37.598,28.809,29.297,-67.383,42.480
1584598339.806,53.711,29.297,29.297,161.621,-11.719
1584598339.810,70.312,30.762,32.227,143.066,-28.809
1584598339.813,-20.020,29.785,32.715,-84.473,-18.066
1584598339.817,-51.758,30.273,29.785,-118.652,72.266
1584598339.821,31.738,33.203,31.738,112.793,80.566
1584598339.825,77.148,35.645,34.668,190.430,41.504
1584598339.829,5.859,32.227,32.715,-19.043,24.902
1584598339.833,-57.617,28.809,30.273,-154.297,-16.602
1584598339.837,4.395,34.668,32.227,38.086,-5.371
1584598339.841,73.730,36.133,33.691,188.477,38.086
1584598339.845,26.855,31.250,31.738,49.316,86.426
1584598339.849,-60.059,26.367,30.762,-151.367,66.406
1584598339.852,-2.930,26.367,35.156,-17.090,17.090
1584598339.856,87.891,37.109,35.645,194.824,19.531
1584598339.860,55.176,38.574,31.250,107.910,-3.906
1584598339.864,-50.293,33.203,24.902,-145.996,-0.488
1584598339.868,-52.734,38.086,23.438,-114.746,45.898
1584598339.872,40.527,45.410,25.879,135.254,49.316
1584598339.876,70.801,47.852,25.391,164.062,37.598
1584598339.880,-16.602,42.480,21.973,-74.219,18.066
1584598339.884,-62.988,42.480,19.043,-152.832,-1.953
1584598339.888,25.879,51.758,20.996,78.125,10.742
1584598339.892,89.844,52.734,27.344,189.941,22.949
1584598339.895,14.648,44.434,29.297,-13.672,6.836
1584598339.899,-61.035,43.457,24.414,-172.852,28.320
1584598339.903,7.324,48.340,24.414,17.090,45.410
1584598339.907,81.543,48.340,26.855,186.523,51.270
1584598339.911,42.969,43.945,26.367,58.594,19.043
1584598339.915,-50.781,41.992,24.902,-166.504,-23.926
1584598339.919,-25.391,45.898,28.809,-61.523,1.465
1584598339.923,62.012,46.387,32.227,168.945,22.949
1584598339.927,63.477,40.527,30.273,130.859,42.480
1584598339.931,-34.668,37.109,24.902,-115.234,5.371
1584598339.935,-48.828,41.504,25.879,-112.793,-11.230
1584598339.938,49.316,44.922,32.227,132.812,9.277
1584598339.942,81.055,42.969,34.180,178.223,0.977
1584598339.946,-4.395,39.551,32.715,-55.176,18.555
1584598339.950,-53.223,40.527,30.273,-155.762,33.203
1584598339.954,23.926,41.016,31.250,65.430,51.758
1584598339.958,88.867,39.062,31.250,185.059,74.707
1584598339.962,33.203,39.551,30.273,9.766,7.812
1584598339.966,-51.270,38.086,27.832,-167.480,-30.273
1584598339.970,-1.953,38.086,29.297,-1.953,25.391
1584598339.974,75.195,38.574,34.180,192.383,27.832
1584598339.977,45.410,37.109,34.668,96.191,-11.230
1584598339.981,-44.434,34.180,31.738,-138.184,-22.461
1584598339.985,-28.809,35.156,34.180,-74.219,24.902
1584598339.989,56.152,34.668,37.109,159.180,59.082
1584598339.993,71.777,37.109,35.645,145.508,47.363
1584598339.997,-21.484,34.668,30.762,-99.121,47.363
1584598340.001,-53.223,28.809,28.809,-131.348,70.312
1584598340.005,36.133,34.668,33.691,104.980,108.398
1584598340.009,80.078,39.062,36.621,177.734,73.242
1584598340.013,5.371,34.668,34.180,-33.691,17.578
1584598340.017,-55.664,33.203,29.785,-155.762,41.504
1584598340.020,13.672,37.598,32.227,51.270,59.570
1584598340.024,81.543,38.574,37.109,194.336,76.172
1584598340.028,27.832,29.785,34.180,32.715,90.820
1584598340.032,-57.617,24.902,31.738,-162.109,60.547
1584598340.036,-2.441,26.855,37.598,-6.836,63.965
1584598340.040,92.285,32.227,43.945,215.332,50.781
1584598340.044,59.082,35.156,39.551,107.422,46.387
1584598340.048,-58.594,30.762,30.762,-171.387,39.062
1584598340.052,-45.410,35.156,29.297,-112.793,-3.418
1584598340.056,64.453,42.480,32.715,153.320,-45.898
1584598340.060,78.613,40.039,33.691,157.227,-69.336
1584598340.063,-18.066,34.668,33.691,-86.914,9.277
1584598340.067,-49.805,35.156,34.180,-132.812,29.297
1584598340.071,34.180,38.574,36.621,104.492,-22.949
1584598340.075,76.660,36.133,39.062,188.965,-18.066
1584598340.079,2.930,32.715,38.086,-17.090,47.363
1584598340.083,-59.570,32.715,35.156,-158.691,53.223
1584598340.087,12.207,37.109,36.621,39.551,3.906
1584598340.091,88.379,41.992,35.156,195.312,24.902
1584598340.095,40.039,38.086,31.738,46.875,7.812
1584598340.099,-50.781,34.180,33.691,-150.879,-8.301
1584598340.102,-14.160,35.645,35.156,-31.250,64.453
1584598340.106,72.754,35.645,35.645,176.758,5.371
1584598340.110,65.430,36.133,39.062,121.582,11.230
1584598340.114,-30.273,33.691,37.109,-114.258,46.387
1584598340.118,-35.156,31.250,38.574,-84.961,15.625
1584598340.122,55.664,34.180,43.457,155.273,72.266
1584598340.126,77.148,34.668,41.016,164.062,28.320
1584598340.130,-8.301,30.762,36.133,-70.312,6.836
1584598340.134,-53.223,27.832,32.227,-143.555,70.312
1584598340.138,27.344,32.227,32.715,70.312,62.500
1584598340.142,85.938,37.598,36.621,180.664,50.293
1584598340.145,15.625,33.203,36.621,-4.883,20.508
1584598340.149,-58.105,30.273,33.691,-161.133,9.277
1584598340.153,4.395,35.156,35.645,19.531,-26.855
1584598340.157,76.172,36.621,39.062,193.359,-28.809
1584598340.161,37.598,34.180,38.086,73.730,40.039
1584598340.165,-52.734,32.715,34.180,-146.973,55.176
1584598340.169,-20.996,34.180,36.621,-42.969,-2.441
1584598340.173,68.359,35.645,41.016,177.734,-27.832
1584598340.177,62.012,33.691,41.992,141.113,10.254
1584598340.181,-33.691,29.297,37.109,-109.375,95.215
1584598340.185,-48.340,31.250,35.645,-120.117,95.215
1584598340.188,42.969,37.109,41.504,131.836,27.344
1584598340.192,76.172,37.109,43.457,184.570,86.426
1584598340.196,-10.254,31.250,39.062,-47.852,21.484
1584598340.200,-56.152,31.250,37.598,-145.020,-22.461
1584598340.204,25.391,37.109,41.016,74.707,60.059
1584598340.208,83.008,39.062,41.016,198.242,64.453
1584598340.212,19.043,33.691,35.645,20.996,61.035
1584598340.216,-60.547,30.762,32.227,-156.738,39.062
1584598340.220,-11.230,33.203,35.156,5.859,48.828
1584598340.224,61.035,31.250,38.086,191.406,74.707
1584598340.227,32.227,26.367,36.133,78.613,13.672
1584598340.231,-53.711,26.855,33.691,-155.762,-22.461
1584598340.235,-35.645,30.762,33.203,-70.801,-37.109
1584598340.239,58.105,36.621,36.133,163.574,-17.578
1584598340.243,64.453,38.086,36.133,145.020,15.625
1584598340.247,-34.180,33.691,31.738,-95.703,6.836
1584598340.251,-53.711,32.227,31.738,-112.305,10.254
1584598340.255,36.621,37.109,34.668,125.977,21.973
1584598340.259,76.660,37.109,34.180,178.223,35.645
1584598340.263,-2.930,33.203,30.762,-44.922,2.930
1584598340.267,-64.941,31.738,26.367,-160.645,3.906
1584598340.270,6.836,30.762,25.391,47.363,41.504
1584598340.274,69.824,33.203,28.809,183.105,73.730
1584598340.278,18.066,35.645,28.320,20.996,62.988
1584598340.282,-59.570,34.180,24.414,-164.551,83.008
1584598340.286,-12.695,31.250,26.367,-22.461,72.754
1584598340.290,74.219,34.180,31.738,173.828,42.969
1584598340.294,57.617,36.621,34.180,101.074,35.645
1584598340.298,-41.992,30.762,30.762,-129.883,-3.418
1584598340.302,-35.645,29.785,33.203,-75.684,14.160
1584598340.306,64.941,35.156,38.574,167.480,-1.465
1584598340.310,76.660,35.645,37.109,161.621,-12.207
1584598340.313,-29.785,30.273,32.715,-96.191,-27.344
1584598340.317,-67.383,28.320,33.203,-146.484,35.156
1584598340.321,22.949,33.203,36.621,98.145,70.312
1584598340.325,71.777,38.574,37.598,186.035,9.277
1584598340.329,-4.395,34.180,36.133,-23.926,13.184
1584598340.333,-70.312,30.273,33.691,-170.898,68.848
1584598340.337,-2.441,37.598,35.645,25.879,86.914
1584598340.341,70.801,40.527,38.086,192.871,98.633
1584598340.345,32.227,37.109,35.156,54.199,31.738
1584598340.349,-54.688,34.180,33.203,-160.645,-37.109
1584598340.352,-18.555,35.645,37.109,-38.574,-9.766
1584598340.356,71.289,37.109,39.551,176.758,20.508
1584598340.360,60.547,34.180,35.645,116.211,14.648
1584598340.364,-42.969,30.273,31.738,-125.000,34.668
1584598340.368,-53.223,32.715,31.738,-100.098,67.383
1584598340.372,40.527,36.133,38.086,139.160,37.109
1584598340.376,66.406,30.762,37.598,160.645,56.152
1584598340.380,-24.414,27.344,31.250,-83.984,23.438
1584598340.384,-66.895,32.715,31.250,-151.367,8.789
1584598340.388,17.578,35.645,35.645,89.355,23.438
1584598340.392,70.312,36.133,39.062,194.336,69.336
1584598340.395,1.953,33.691,35.645,-6.348,92.285
1584598340.399,-67.871,31.250,30.273,-165.039,69.824
1584598340.403,-4.883,32.227,32.715,16.113,-0.488
1584598340.407,69.824,34.668,34.180,188.965,-50.781
1584598340.411,33.203,32.227,33.203,65.430,-0.488
1584598340.415,-55.176,28.809,33.203,-155.762,-18.066
1584598340.419,-30.762,32.715,33.203,-56.641,-37.109
1584598340.423,55.176,34.180,35.645,166.504,22.949
1584598340.427,59.570,35.156,38.574,130.859,42.969
1584598340.431,-32.227,34.180,34.668,-111.816,38.086
1584598340.435,-45.898,35.645,31.250,-110.840,31.250
1584598340.438,47.852,41.504,34.180,124.023,-7.812
1584598340.442,82.031,41.992,37.109,170.898,-10.254
1584598340.446,-4.395,41.504,36.621,-51.270,3.906
1584598340.450,-54.199,39.551,34.180,-152.344,-0.488
1584598340.454,23.438,37.598,38.086,64.453,21.484
1584598340.458,82.520,39.551,38.574,193.359,83.496
1584598340.462,21.484,35.645,35.156,13.672,36.621
1584598340.466,-62.500,28.809,31.250,-173.828,20.996
1584598340.470,-12.695,33.203,34.668,-16.113,52.734
1584598340.474,74.219,40.527,41.992,182.129,35.156
1584598340.477,46.387,38.086,41.016,88.867,33.691
1584598340.481,-46.387,35.645,35.645,-142.090,29.785
1584598340.485,-28.320,41.504,37.109,-63.965,37.109
1584598340.489,61.523,43.945,42.969,176.270,43.945
1584598340.493,74.219,40.527,43.457,157.715,38.574
1584598340.497,-15.625,36.621,40.527,-92.773,-0.977
1584598340.501,-44.922,36.621,38.574,-118.652,12.207
1584598340.505,40.039,37.598,40.039,122.070,42.969
1584598340.509,80.566,36.133,41.992,185.547,-26.367
1584598340.513,-4.883,32.715,38.574,-45.898,-10.742
1584598340.517,-63.477,33.691,35.645,-164.062,89.355
1584598340.520,15.625,38.086,38.574,54.199,63.477
1584598340.524,83.008,41.504,41.504,194.336,4.883
1584598340.528,30.273,39.062,38.574,41.504,18.555
1584598340.532,-54.688,34.180,35.645,-151.855,20.996
1584598340.536,-9.766,39.062,34.180,-14.648,35.156
1584598340.540,79.590,44.922,35.645,192.871,71.289
1584598340.544,67.871,42.480,37.598,115.234,9.766
1584598340.548,-46.387,29.785,41.504,-129.395,6.348
1584598340.552,-56.641,23.926,45.898,-83.008,39.551
1584598340.556,40.527,31.738,44.434,147.461,50.293
1584598340.560,53.711,33.203,41.992,138.184,41.992
1584598340.563,-33.691,30.762,41.016,-95.215,19.531
1584598340.567,-64.453,32.715,40.039,-132.812,68.848
1584598340.571,15.625,39.062,43.457,101.562,86.426
1584598340.575,67.871,39.062,46.875,190.918,34.180
1584598340.579,-4.395,35.156,42.969,-17.090,44.434
1584598340.583,-73.242,32.227,39.551,-159.180,66.895
1584598340.587,-0.977,36.621,42.480,36.621,7.324
1584598340.591,73.730,42.969,45.898,194.336,-47.363
1584598340.595,28.320,39.551,44.434,52.734,-0.488
1584598340.599,-57.617,35.645,39.551,-151.855,27.832
1584598340.602,-26.855,36.133,39.062,-36.133,-21.973
1584598340.606,63.965,40.527,43.457,171.875,2.441
1584598340.610,61.523,41.504,40.527,118.652,47.363
1584598340.614,-38.086,36.133,35.156,-119.141,25.391
1584598340.618,-42.480,36.621,35.645,-89.844,18.555
1584598340.622,52.246,43.945,38.574,153.320,39.551
1584598340.626,79.590,44.434,40.527,175.781,46.875
1584598340.630,-10.742,37.598,38.086,-62.988,44.922
1584598340.634,-56.641,36.133,35.156,-143.555,43.945
1584598340.638,26.367,41.016,39.062,84.473,41.016
1584598340.642,80.078,40.527,41.016,192.871,15.625
1584598340.645,12.207,34.180,35.645,-6.836,33.203
1584598340.649,-61.523,33.203,32.715,-166.504,55.664
1584598340.653,-5.371,39.062,38.574,15.137,-6.836
1584598340.657,75.684,41.016,40.527,192.383,-14.160
1584598340.661,39.551,38.574,39.062,64.941,47.852
1584598340.665,-56.641,36.133,36.621,-162.109,69.336
1584598340.669,-27.344,39.062,36.133,-54.688,32.227
1584598340.673,65.430,41.992,40.039,167.969,20.508
1584598340.677,60.547,38.574,39.551,129.883,46.875
1584598340.681,-40.527,34.180,36.133,-102.051,50.293
1584598340.685,-52.734,35.645,38.086,-103.027,7.324
1584598340.688,47.363,41.504,41.016,135.254,-20.020
1584598340.692,82.031,39.062,39.062,174.805,-34.668
1584598340.696,-6.836,33.691,34.180,-61.523,-20.508
1584598340.700,-58.105,36.621,32.227,-151.367,15.625
1584598340.704,20.996,40.527,35.156,72.754,6.836
1584598340.708,80.078,40.039,36.621,190.918,-31.250
1584598340.712,17.578,38.574,36.133,10.742,7.324
1584598340.716,-64.453,34.668,34.668,-162.109,17.090
1584598340.720,-11.230,34.668,37.109,3.906,22.461
1584598340.724,69.336,37.109,38.086,190.430,49.805
1584598340.727,41.016,33.691,37.109,86.914,37.109
1584598340.731,-50.293,30.762,36.133,-146.973,36.621
1584598340.735,-34.668,36.621,35.156,-73.242,62.500
1584598340.739,50.781,37.598,38.086,154.297,52.734
1584598340.743,60.059,37.598,39.551,145.508,36.621
1584598340.747,-31.738,38.574,36.621,-88.379,38.574
1584598340.751,-56.152,33.691,34.180,-128.906,31.250
1584598340.755,32.715,33.691,37.109,101.562,-14.160
1584598340.759,75.195,38.086,39.062,175.293,-12.695
1584598340.763,1.953,35.645,36.621,-37.109,32.227
1584598340.767,-55.176,33.691,35.156,-156.738,5.859
1584598340.770,15.137,36.133,37.598,52.246,11.719
1584598340.774,79.102,35.645,40.039,199.707,19.531
1584598340.778,23.926,33.691,37.598,37.109,22.461
1584598340.782,-62.500,32.227,34.180,-160.156,70.312
1584598340.786,-17.090,32.715,37.109,-13.672,24.902
1584598340.790,66.406,36.133,38.574,183.105,21.973
1584598340.794,42.969,32.227,37.109,101.562,15.137
1584598340.798,-52.734,27.344,36.621,-135.742,-8.789
1584598340.802,-39.062,35.156,37.598,-83.984,41.504
1584598340.806,58.105,40.527,41.016,164.551,31.250
1584598340.810,75.684,34.668,42.480,167.969,22.461
1584598340.813,-14.648,30.273,39.551,-74.219,51.758
1584598340.817,-48.340,33.203,38.574,-122.070,91.309
1584598340.821,37.109,37.598,39.551,120.117,72.754
1584598340.825,81.055,37.598,39.551,203.613,56.641
1584598340.829,4.395,34.180,39.062,-20.020,42.480
1584598340.833,-62.500,32.227,39.062,-157.227,9.766
1584598340.837,9.277,35.156,40.527,48.828,18.555
1584598340.841,91.309,36.133,42.969,207.520,27.344
1584598340.845,46.875,37.598,41.016,55.176,21.484
1584598340.849,-60.059,41.504,35.645,-162.598,32.227
1584598340.852,-30.273,41.504,34.180,-38.086,37.598
1584598340.856,66.895,44.434,35.156,179.688,31.250
1584598340.860,51.758,44.434,32.227,108.887,-12.207
1584598340.864,-48.340,38.086,30.273,-131.836,-24.414
1584598340.868,-48.828,35.156,31.738,-104.004,20.020
1584598340.872,47.852,37.598,34.668,133.301,25.879
1584598340.876,73.730,38.574,37.109,161.621,17.090
1584598340.880,-18.555,33.203,34.668,-75.195,38.574
1584598340.884,-59.570,32.227,33.203,-149.902,25.391
1584598340.888,25.879,39.062,38.574,68.359,24.414
1584598340.892,80.078,44.434,43.457,179.199,39.062
1584598340.895,4.883,39.551,39.062,-3.906,-9.277
1584598340.899,-64.941,35.645,36.133,-166.504,3.418
1584598340.903,1.953,41.992,36.621,14.648,38.574
1584598340.907,72.754,44.434,39.551,189.941,62.012
1584598340.911,40.527,40.039,42.480,73.242,32.715
1584598340.915,-49.805,36.133,38.574,-149.902,18.066
1584598340.919,-25.391,39.062,37.109,-52.734,87.891
1584598340.923,62.500,42.969,39.551,175.781,74.707
1584598340.927,59.570,38.086,41.016,129.883,-5.859
1584598340.931,-35.156,29.785,34.180,-125.000,-39.551
1584598340.935,-51.270,35.645,34.668,-122.070,-4.395
1584598340.938,43.945,43.457,41.992,129.395,22.461
1584598340.942,82.031,41.504,41.016,184.570,39.551
1584598340.946,-1.465,36.621,36.621,-45.898,16.602
1584598340.950,-55.664,33.203,36.133,-152.344,8.789
1584598340.954,20.508,35.645,40.527,75.684,64.941
1584598340.958,82.520,36.133,40.039,199.707,58.105
1584598340.962,20.508,35.156,36.133,9.277,29.297
1584598340.966,-61.035,36.133,34.180,-169.922,50.781
1584598340.970,-6.348,42.480,36.133,-4.395,-18.066
1584598340.974,73.242,41.992,40.527,188.477,-39.551
1584598340.977,41.992,35.156,40.039,77.637,34.668
1584598340.981,-52.246,35.156,37.598,-155.762,44.434
1584598340.985,-36.133,37.109,37.109,-68.848,14.648
1584598340.989,54.199,38.086,40.527,166.992,-17.090
1584598340.993,62.500,38.574,42.480,145.508,9.766
1584598340.997,-30.273,33.691,39.062,-101.562,22.949
1584598341.001,-56.152,31.738,39.062,-121.582,48.828
1584598341.005,35.645,38.574,43.457,113.281,69.824
1584598341.009,80.078,42.480,42.969,181.641,31.738
1584598341.013,0.488,36.621,40.039,-32.227,13.184
1584598341.017,-61.035,32.715,36.133,-158.691,21.484
1584598341.020,12.207,35.156,37.598,50.293,32.715
1584598341.024,79.102,39.062,39.062,185.059,62.988
1584598341.028,25.391,34.668,38.574,20.996,47.852
1584598341.032,-59.570,31.738,38.086,-165.527,1.953
1584598341.036,-17.090,37.109,37.109,-25.391,24.414
1584598341.040,65.918,40.527,39.551,176.758,40.527
1584598341.044,45.898,39.551,38.574,100.586,69.336
1584598341.048,-49.805,35.156,35.156,-136.719,112.305
1584598341.052,-37.598,34.668,36.133,-83.984,112.793
1584598341.056,61.523,36.621,39.551,153.320,50.293
1584598341.060,81.543,35.645,39.551,163.574,31.250
1584598341.063,-16.113,32.715,35.645,-72.266,103.516
1584598341.067,-60.059,29.297,31.250,-141.602,69.824
1584598341.071,23.926,32.715,34.180,84.961,47.363
1584598341.075,76.172,36.621,36.621,184.570,77.148
1584598341.079,4.395,30.273,33.691,-23.926,95.215
1584598341.083,-68.848,26.855,31.738,-180.176,74.707
1584598341.087,-6.836,35.645,34.668,15.625,29.297
1584598341.091,69.336,35.156,38.574,189.941,-9.277
1584598341.095,25.391,29.297,36.133,50.293,23.438
1584598341.099,-63.965,29.785,34.668,-161.621,51.758
1584598341.102,-27.832,29.785,37.109,-32.227,7.324
1584598341.106,62.012,31.738,39.062,182.617,31.250
1584598341.110,51.758,31.250,38.086,123.535,69.824
1584598341.114,-44.922,27.344,34.668,-120.117,59.570
1584598341.118,-46.387,30.762,34.180,-103.027,18.066
1584598341.122,48.340,37.109,37.598,140.625,60.059
1584598341.126,77.148,36.133,34.180,164.551,64.453
1584598341.130,-12.695,34.180,30.762,-76.172,14.160
1584598341.134,-58.594,35.156,32.227,-145.020,3.906
1584598341.138,28.809,37.598,34.180,91.797,-2.441
1584598341.142,84.473,36.621,36.133,195.312,-24.414
1584598341.145,13.672,32.715,33.691,-7.324,-38.574
1584598341.149,-56.152,31.250,31.250,-170.410,-17.578
1584598341.153,1.953,34.668,34.668,12.695,18.066
1584598341.157,75.195,38.086,38.574,192.871,50.293
1584598341.161,39.551,35.156,37.598,78.613,37.109
1584598341.165,-52.246,32.227,34.180,-146.973,-0.977
1584598341.169,-27.832,34.668,33.203,-62.988,7.812
1584598341.173,62.500,35.645,33.691,156.250,9.277
1584598341.177,66.406,35.156,31.738,131.836,21.973
1584598341.181,-32.715,31.738,28.320,-110.352,-6.348
1584598341.185,-53.223,31.738,31.250,-125.488,-13.184
1584598341.188,41.016,38.574,35.156,122.559,6.836
1584598341.192,85.449,37.598,34.180,189.453,-16.602
1584598341.196,-1.465,31.250,31.250,-40.039,30.273
1584598341.200,-65.918,28.320,30.762,-160.645,95.215
1584598341.204,15.625,33.203,36.621,56.152,78.613
1584598341.208,83.008,35.156,37.109,203.613,64.941
1584598341.212,17.090,33.203,34.180,25.879,62.012
1584598341.216,-71.777,28.809,32.227,-184.082,29.297
1584598341.220,-21.484,29.785,34.180,-35.645,-3.418
1584598341.224,70.312,37.598,38.574,181.641,12.207
1584598341.227,44.922,36.621,34.180,97.168,0.977
1584598341.231,-59.082,33.203,31.738,-155.762,11.719
1584598341.235,-46.875,35.645,32.715,-91.309,45.898
1584598341.239,56.152,39.062,36.133,165.039,47.363
1584598341.243,71.777,38.086,38.086,160.645,36.621
1584598341.247,-34.668,33.691,35.156,-104.980,22.461
1584598341.251,-67.871,33.203,34.180,-148.438,27.344
1584598341.255,28.809,34.668,37.109,104.492,24.414
1584598341.259,81.543,34.668,38.086,193.359,16.602
1584598341.263,0.977,31.738,33.203,-37.598,-11.719
1584598341.267,-69.336,30.762,30.762,-179.688,26.855
1584598341.270,3.906,33.691,33.691,40.527,68.359
1584598341.274,84.961,37.109,36.621,208.984,28.320
1584598341.278,31.738,35.156,36.621,53.223,-4.395
1584598341.282,-57.129,34.180,30.762,-163.574,-11.230
1584598341.286,-5.371,39.062,28.320,-21.973,15.137
1584598341.290,93.262,42.969,33.203,202.637,36.621
1584598341.294,65.918,34.668,38.574,127.930,5.371
1584598341.298,-54.199,25.879,37.109,-139.160,17.090
1584598341.302,-47.852,28.809,35.156,-101.074,34.180
1584598341.306,52.246,33.203,38.574,142.578,-9.766
1584598341.310,72.754,35.645,40.527,166.016,26.367
1584598341.313,-20.020,35.156,42.480,-73.730,35.645
1584598341.317,-62.500,34.668,39.551,-151.367,5.859
1584598341.321,26.855,39.551,38.574,87.402,29.297
1584598341.325,86.426,41.992,40.527,198.242,25.879
1584598341.329,8.789,34.668,38.574,-5.371,68.359
1584598341.333,-66.895,29.297,34.668,-169.922,27.832
1584598341.337,1.953,32.715,35.156,14.160,-30.762
1584598341.341,85.938,35.645,36.133,194.336,46.875
1584598341.345,43.945,33.203,34.668,59.082,22.461
1584598341.349,-59.082,31.738,33.691,-169.922,-6.348
1584598341.352,-30.273,32.227,33.203,-59.082,15.625
1584598341.356,62.012,40.527,36.621,164.551,-24.414
1584598341.360,55.176,41.992,37.109,129.883,20.996
1584598341.364,-43.945,34.668,33.203,-118.164,77.637
1584598341.368,-55.176,35.156,33.203,-109.375,45.898
1584598341.372,38.574,40.039,35.645,140.137,44.922
1584598341.376,69.336,37.598,35.645,177.246,53.223
1584598341.380,-21.484,31.738,38.086,-66.895,41.992
1584598341.384,-68.848,31.738,34.668,-159.668,23.438
1584598341.388,15.625,38.086,33.203,76.172,21.484
1584598341.392,74.707,40.039,37.598,200.195,20.508
1584598341.395,3.906,35.156,35.645,-1.465,48.828
1584598341.399,-76.172,32.227,34.668,-180.664,69.336
1584598341.403,-12.207,38.086,38.574,7.812,26.855
1584598341.407,70.801,41.016,40.527,196.289,-8.789
1584598341.411,35.645,35.645,37.598,69.336,-13.184
1584598341.415,-60.547,30.273,34.180,-162.598,7.324
1584598341.419,-33.203,32.227,34.180,-60.059,35.645
1584598341.423,64.941,35.156,37.109,172.852,1.953
1584598341.427,63.477,33.203,37.598,135.742,9.277
1584598341.431,-36.133,29.785,35.156,-111.328,33.203
1584598341.435,-44.922,31.738,36.621,-110.352,-19.043
1584598341.438,47.363,36.621,39.551,140.137,-9.766
1584598341.442,76.660,34.180,40.039,182.129,9.766
1584598341.446,-13.672,31.738,34.668,-64.453,31.250
1584598341.450,-64.941,32.227,32.715,-156.738,26.367
1584598341.454,19.043,33.203,36.133,69.824,8.301
1584598341.458,76.172,33.203,35.156,184.570,23.926
1584598341.462,9.277,29.785,36.133,2.930,33.691
1584598341.466,-63.965,28.809,37.598,-169.434,-1.953
1584598341.470,-8.301,33.691,38.574,-0.488,41.016
1584598341.474,71.289,36.133,39.062,187.500,62.500
1584598341.477,47.852,34.180,37.109,82.031,18.555
1584598341.481,-44.434,31.250,31.250,-148.926,38.086
1584598341.485,-21.973,35.645,26.367,-68.359,57.617
1584598341.489,86.426,39.062,31.250,179.688,69.824
1584598341.493,92.285,31.738,42.969,173.340,83.984
1584598341.497,-28.320,25.391,43.457,-97.168,72.754
1584598341.501,-62.988,23.926,37.109,-145.020,-4.395
1584598341.505,25.879,28.320,41.504,96.680,-12.207
1584598341.509,62.988,30.762,47.852,166.504,27.344
1584598341.513,-19.043,22.461,44.922,-49.316,4.395
1584598341.517,-77.148,18.066,44.922,-170.410,8.301
1584598341.520,-5.859,24.414,51.270,41.016,53.223
1584598341.524,61.523,26.855,57.617,189.941,83.984
1584598341.528,1.953,21.973,57.617,20.996,25.391
1584598341.532,-86.426,16.602,53.711,-174.316,51.758
1584598341.536,-38.574,15.137,55.664,-22.461,89.355
1584598341.540,53.223,20.020,58.105,179.199,59.570
1584598341.544,39.551,20.508,55.664,97.656,32.227
1584598341.548,-60.059,15.625,52.734,-143.555,56.152
1584598341.552,-51.270,21.973,54.199,-84.473,52.734
1584598341.556,42.969,28.809,57.129,160.156,64.453
1584598341.560,61.035,28.809,54.199,158.203,66.895
1584598341.563,-29.785,23.926,49.316,-78.125,-16.113
1584598341.567,-60.059,23.438,50.293,-126.465,1.465
1584598341.571,25.879,29.297,50.781,107.910,17.578
1584598341.575,71.289,29.785,50.781,187.012,25.391
1584598341.579,-3.906,23.926,49.805,-25.879,64.941
1584598341.583,-67.383,23.438,45.898,-157.715,14.160
1584598341.587,2.930,31.738,47.852,41.016,0.977
1584598341.591,68.848,30.762,47.363,188.477,64.941
1584598341.595,22.461,30.273,45.410,33.203,83.984
1584598341.599,-61.035,33.203,44.922,-161.621,43.457
1584598341.602,-27.832,32.227,45.410,-24.902,12.695
1584598341.606,61.523,34.180,44.434,183.594,14.648
1584598341.610,55.176,32.715,43.457,117.676,37.598
1584598341.614,-38.086,29.297,41.992,-122.070,44.434
1584598341.618,-36.621,32.227,39.551,-93.750,26.367
1584598341.622,52.246,36.133,39.551,149.414,23.438
1584598341.626,73.242,38.086,40.039,172.852,46.387
1584598341.630,-15.625,34.668,37.109,-65.918,35.645
1584598341.634,-54.688,31.738,35.156,-135.254,52.734
1584598341.638,25.879,35.156,39.062,85.938,62.988
1584598341.642,75.195,36.621,43.945,185.059,31.738
1584598341.645,5.859,30.762,41.504,-3.418,41.992
1584598341.649,-64.941,26.855,35.645,-156.250,50.781
1584598341.653,-5.371,29.297,37.109,23.438,30.273
1584598341.657,70.801,33.691,41.016,190.918,-4.883
1584598341.661,35.645,31.738,40.039,71.777,11.230
1584598341.665,-52.734,29.297,38.086,-143.555,45.410
1584598341.669,-25.879,33.203,34.180,-42.480,61.523
1584598341.673,60.547,36.133,37.109,177.246,107.422
1584598341.677,58.594,34.180,41.504,136.719,34.668
1584598341.681,-37.598,29.785,35.156,-120.605,-26.367
1584598341.685,-48.828,29.785,34.180,-125.000,6.348
1584598341.688,40.527,34.180,37.598,127.441,21.484
1584598341.692,66.895,37.598,38.086,174.805,74.707
1584598341.696,-16.113,33.203,35.156,-55.176,13.672
1584598341.700,-62.988,31.250,34.668,-145.508,-28.809
1584598341.704,18.066,38.574,40.039,76.172,60.547
1584598341.708,80.078,38.086,40.039,197.754,13.184
1584598341.712,17.578,32.715,37.598,13.184,11.230
1584598341.716,-58.594,36.133,38.574,-161.133,77.637
1584598341.720,-5.371,39.551,41.016,17.090,-0.488
1584598341.724,74.219,41.016,38.574,194.336,-38.574
1584598341.727,45.898,37.109,34.180,70.801,29.297
1584598341.731,-48.828,32.715,33.203,-156.250,56.641
1584598341.735,-27.832,36.133,33.691,-62.988,24.414
1584598341.739,64.453,40.527,36.621,176.270,41.504
1584598341.743,68.848,39.062,40.039,151.367,58.105
1584598341.747,-28.320,32.715,37.109,-92.285,20.508
1584598341.751,-50.781,33.203,34.668,-114.258,3.906
1584598341.755,38.086,39.062,39.062,122.070,13.184
1584598341.759,74.219,39.062,40.039,180.176,30.762
1584598341.763,-4.883,36.133,36.133,-45.898,-12.695
1584598341.767,-56.152,34.180,36.621,-153.809,-30.762
1584598341.770,17.578,34.668,39.551,49.805,4.395
1584598341.774,79.590,39.062,41.016,175.781,17.090
1584598341.778,25.391,37.109,38.086,20.996,3.906
1584598341.782,-54.688,31.250,33.691,-163.574,20.996
1584598341.786,-7.812,35.156,38.086,-9.277,74.219
1584598341.790,73.730,40.039,42.969,193.359,70.801
1584598341.794,49.316,35.156,42.969,99.121,66.895
1584598341.798,-48.340,28.809,38.574,-139.160,-10.254
1584598341.802,-36.133,31.738,37.598,-79.102,-62.988
1584598341.806,57.617,35.645,41.992,160.156,-20.996
1584598341.810,72.266,36.621,43.945,154.785,18.066
1584598341.813,-20.508,31.738,38.086,-85.938,4.883
1584598341.817,-51.270,30.273,38.574,-127.930,12.695
1584598341.821,34.180,35.645,44.922,106.445,66.895
1584598341.825,76.172,37.598,44.922,185.547,40.039
1584598341.829,-0.488,30.273,40.527,-26.855,6.348
1584598341.833,-61.523,27.344,34.668,-168.457,36.133
1584598341.837,10.254,34.668,37.109,36.133,56.641
1584598341.841,82.031,39.062,40.039,198.242,61.523
1584598341.845,31.250,36.133,38.086,57.129,25.391
1584598341.849,-60.059,33.203,34.668,-153.809,-6.836
1584598341.852,-19.531,35.645,38.574,-32.227,7.812
1584598341.856,67.871,38.574,41.016,180.664,11.230
1584598341.860,55.664,36.133,38.574,114.746,26.367
1584598341.864,-38.574,30.762,36.621,-125.488,43.945
1584598341.868,-36.133,35.156,36.621,-91.309,50.781
1584598341.872,61.523,40.039,42.480,152.344,85.938
1584598341.876,86.914,35.156,42.969,166.504,110.840
1584598341.880,-3.418,30.762,37.109,-75.195,66.406
1584598341.884,-44.922,35.645,40.039,-126.953,69.336
1584598341.888,35.156,38.086,43.457,104.980,82.031
1584598341.892,86.426,37.598,42.480,200.195,73.730
1584598341.895,14.160,32.227,41.016,2.930,70.312
1584598341.899,-55.664,30.762,38.086,-160.156,25.391
1584598341.903,8.301,37.109,39.062,26.855,5.371
1584598341.907,80.078,39.062,40.039,194.824,-9.277
1584598341.911,42.480,33.691,37.109,62.012,-38.086
1584598341.915,-48.340,31.738,32.715,-155.273,-61.523
1584598341.919,-18.555,30.273,39.551,-39.062,-27.832
1584598341.923,83.984,26.367,51.270,198.730,68.359
1584598341.927,83.008,36.621,48.828,155.762,49.316
1584598341.931,-33.203,39.551,39.551,-105.957,-0.977
1584598341.935,-54.199,38.574,36.133,-112.305,44.922
1584598341.938,38.574,48.828,36.133,126.953,54.688
1584598341.942,69.336,50.781,34.668,163.086,31.738
1584598341.946,-16.113,44.434,30.273,-68.359,-0.977
1584598341.950,-59.570,45.410,25.391,-152.832,-22.949
1584598341.954,19.043,51.270,22.949,62.012,-26.367
1584598341.958,71.777,52.734,24.414,173.340,-10.742
1584598341.962,7.812,53.223,21.484,-9.277,28.809
1584598341.966,-68.848,52.246,12.207,-193.359,60.547
1584598341.970,-12.207,53.711,13.184,-33.691,34.668
1584598341.974,62.988,55.176,17.578,155.273,-15.625
1584598341.977,37.109,53.711,17.090,62.988,29.785
1584598341.981,-46.387,49.316,14.648,-155.273,38.574
1584598341.985,-28.809,46.387,19.531,-72.754,-10.742
1584598341.989,62.500,49.805,22.949,158.203,-0.488
1584598341.993,66.406,50.781,20.508,130.371,58.105
1584598341.997,-29.297,49.316,18.555,-109.863,79.102
1584598342.001,-48.340,50.293,21.973,-122.559,49.316
1584598342.005,40.527,48.828,25.879,117.676,40.527
1584598342.009,80.566,49.316,26.367,175.293,30.762
1584598342.013,-0.977,45.898,25.879,-53.711,-30.762
1584598342.017,-57.617,44.434,24.902,-157.227,-23.438
1584598342.020,19.043,49.316,26.855,64.453,86.914
1584598342.024,85.938,49.316,30.273,194.824,80.566
1584598342.028,27.344,43.457,28.809,18.555,26.855
1584598342.032,-56.641,42.480,28.320,-170.410,23.438
1584598342.036,-4.883,46.875,30.762,-8.301,46.387
