timestamps,TP9,AF7,AF8,TP10,Right AUX
1584600273.892,27.832,22.461,23.438,-8.789,68.848
1584600273.895,7.812,20.996,22.949,-116.699,40.527
1584600273.899,36.621,27.344,26.855,35.645,0.977
1584600273.903,57.129,30.273,27.344,168.457,41.992
1584600273.907,24.414,24.902,24.902,49.316,46.387
1584600273.911,-10.742,21.484,22.461,-111.328,20.508
1584600273.915,18.555,29.297,25.391,-23.926,26.855
1584600273.919,57.129,34.180,30.762,161.621,44.434
1584600273.923,41.016,29.297,30.273,104.980,41.504
1584600273.927,-1.953,22.949,26.855,-94.727,20.020
1584600273.931,8.301,24.414,30.762,-64.941,88.379
1584600273.935,49.316,29.785,36.133,139.648,104.492
1584600273.938,47.852,26.367,35.156,154.785,20.508
1584600273.942,7.324,18.555,31.738,-42.969,-28.320
1584600273.946,1.953,19.043,30.762,-101.074,12.695
1584600273.950,45.410,25.879,35.156,86.914,27.344
1584600273.954,53.223,24.414,39.551,181.641,-10.254
1584600273.958,18.555,18.066,38.086,26.855,18.555
1584600273.962,2.930,15.137,34.180,-103.516,37.598
1584600273.966,32.227,27.832,31.738,31.250,25.879
1584600273.970,44.922,35.645,31.738,169.922,48.340
1584600273.974,11.230,29.297,30.273,51.270,73.242
1584600273.977,-26.855,23.438,27.344,-123.535,39.551
1584600273.981,-0.488,27.832,30.762,-41.504,-10.742
1584600273.985,49.805,34.180,32.227,150.391,-3.418
1584600273.989,35.156,31.738,29.297,112.305,-1.465
1584600273.993,-19.531,25.879,23.438,-86.914,7.324
1584600273.997,-8.301,26.855,24.902,-94.727,41.504
1584600274.001,39.551,36.621,31.250,108.887,82.520
1584600274.005,39.551,38.574,29.297,154.785,38.574
1584600274.009,-9.766,25.879,24.414,-35.645,40.039
1584600274.013,-26.367,24.414,21.484,-122.070,125.488
1584600274.017,26.367,37.598,26.855,58.594,70.312
1584600274.020,54.688,42.480,31.250,172.363,41.504
1584600274.024,21.484,30.762,27.832,18.555,35.156
1584600274.028,-1.465,25.879,26.367,-119.141,-11.719
1584600274.032,34.668,38.574,29.297,9.277,29.297
1584600274.036,54.199,37.598,34.668,169.922,64.941
1584600274.040,19.531,25.879,30.762,81.543,-4.395
1584600274.044,-9.766,27.344,24.902,-102.539,-14.160
1584600274.048,18.555,34.668,28.320,-45.410,26.855
1584600274.052,61.035,34.668,31.250,148.438,20.508
1584600274.056,52.246,29.297,28.320,125.977,-17.578
1584600274.060,18.066,27.832,21.973,-74.219,-26.855
1584600274.063,17.090,35.645,23.438,-83.984,41.504
1584600274.067,44.922,41.016,29.785,115.234,52.246
1584600274.071,40.039,41.016,28.809,155.273,14.648
1584600274.075,-9.766,31.250,23.926,-25.879,23.926
1584600274.079,-16.602,27.832,26.855,-114.258,32.715
1584600274.083,34.668,38.574,32.227,53.711,16.113
1584600274.087,51.758,39.551,33.203,173.828,-10.742
1584600274.091,12.207,27.344,29.785,33.691,10.254
1584600274.095,-10.254,26.855,26.855,-116.211,59.570
1584600274.099,27.344,33.203,30.273,-2.441,-4.395
1584600274.102,56.641,32.715,35.156,170.410,-44.922
1584600274.106,29.785,30.762,32.227,96.680,-26.855
1584600274.110,-2.441,25.879,27.832,-97.656,23.438
1584600274.114,23.438,27.832,32.227,-61.035,37.109
1584600274.118,68.848,32.715,36.621,137.207,17.090
1584600274.122,61.523,31.250,30.273,135.742,41.504
1584600274.126,3.418,24.902,25.391,-57.617,4.883
1584600274.130,-8.301,26.855,27.344,-93.750,27.344
1584600274.134,37.109,35.156,32.715,101.562,65.918
1584600274.138,44.434,27.832,32.715,170.898,49.316
1584600274.142,13.672,15.137,27.832,-4.395,51.758
1584600274.145,-3.906,13.672,27.832,-118.164,-0.488
1584600274.149,27.344,24.902,32.715,28.809,0.977
1584600274.153,48.340,29.297,33.203,167.480,41.504
1584600274.157,14.160,24.902,29.297,50.781,34.180
1584600274.161,-3.906,23.438,24.902,-115.234,27.832
1584600274.165,25.879,28.320,28.809,-22.461,41.992
1584600274.169,54.688,33.203,32.227,162.109,46.387
1584600274.173,32.715,26.367,27.832,109.863,20.020
1584600274.177,-5.371,20.508,22.949,-79.102,-29.785
1584600274.181,14.160,27.832,25.391,-69.336,11.719
1584600274.185,59.082,35.645,29.785,124.023,52.246
1584600274.188,44.922,31.738,26.367,147.461,32.715
1584600274.192,-2.441,21.484,21.484,-42.969,27.344
1584600274.196,-9.277,23.438,21.484,-104.980,-1.953
1584600274.200,35.156,36.621,27.832,79.590,14.160
1584600274.204,59.082,35.645,27.832,175.781,51.758
1584600274.208,20.020,25.391,22.461,11.230,55.176
1584600274.212,-2.930,22.949,20.996,-121.094,3.906
1584600274.216,36.621,29.297,22.949,23.926,33.691
1584600274.220,49.316,34.668,28.809,175.293,71.289
1584600274.224,19.043,29.297,28.809,74.219,40.039
1584600274.227,-7.812,24.902,24.902,-104.004,39.062
1584600274.231,14.160,31.250,28.809,-35.156,37.598
1584600274.235,55.176,34.668,35.156,158.691,20.996
1584600274.239,47.363,32.227,34.668,124.512,29.297
1584600274.243,1.953,25.391,29.785,-67.871,28.320
1584600274.247,9.766,25.879,28.320,-71.777,-49.316
1584600274.251,54.199,33.691,31.250,117.676,4.395
1584600274.255,38.086,33.203,27.832,146.973,31.250
1584600274.259,-5.371,23.926,21.484,-39.551,-13.184
1584600274.263,-3.418,21.484,23.926,-113.281,23.438
1584600274.267,37.598,29.785,29.785,62.500,16.602
1584600274.270,43.945,31.250,31.250,167.480,7.324
1584600274.274,-1.953,22.461,23.438,24.414,52.246
1584600274.278,-21.484,17.090,18.066,-113.770,95.215
1584600274.282,19.043,22.949,24.414,3.906,49.316
1584600274.286,39.551,28.320,26.855,166.504,51.758
1584600274.290,8.789,22.461,20.020,77.148,69.824
1584600274.294,-20.508,13.672,18.555,-117.188,40.527
1584600274.298,6.836,19.531,24.414,-64.941,75.195
1584600274.302,43.945,26.855,26.855,128.418,75.684
1584600274.306,24.414,20.996,21.484,113.770,37.109
1584600274.310,-26.855,14.648,17.090,-79.590,39.062
1584600274.313,-19.531,19.043,17.090,-100.098,-19.043
1584600274.317,27.344,26.367,20.996,94.727,-41.016
1584600274.321,35.156,23.926,22.461,150.391,2.441
1584600274.325,3.906,21.973,18.555,-30.762,43.945
1584600274.329,-1.465,25.879,16.602,-131.836,28.320
1584600274.333,22.461,27.344,23.438,30.762,-0.977
1584600274.337,33.203,27.832,28.809,162.598,35.156
1584600274.341,9.277,22.949,23.926,26.367,69.824
1584600274.345,-13.184,20.020,19.531,-136.230,16.602
1584600274.349,28.809,27.344,24.902,-24.414,-40.527
1584600274.352,69.336,34.180,31.250,152.344,-30.273
1584600274.356,25.879,27.344,30.762,89.844,-31.738
1584600274.360,-30.762,17.090,24.902,-96.680,-35.645
1584600274.364,-2.930,22.461,23.926,-60.547,-15.625
1584600274.368,50.293,32.715,29.785,137.207,-17.090
1584600274.372,49.316,31.250,28.809,143.066,-8.789
1584600274.376,2.930,21.973,25.879,-45.410,1.953
1584600274.380,-5.371,21.973,26.367,-91.309,9.766
1584600274.384,36.621,29.297,33.691,96.191,49.805
1584600274.388,49.805,30.273,35.645,167.480,68.359
1584600274.392,17.578,24.902,27.832,-1.953,52.246
1584600274.395,-9.277,23.438,26.367,-108.398,12.207
1584600274.399,31.738,29.785,31.250,39.551,24.414
1584600274.403,62.500,32.715,31.738,176.270,95.215
1584600274.407,30.762,31.250,27.344,58.594,29.785
1584600274.411,-1.953,27.832,24.902,-102.051,-22.949
1584600274.415,26.855,27.832,28.320,-10.742,66.895
1584600274.419,61.035,31.738,35.645,169.434,65.918
1584600274.423,31.738,28.320,35.156,119.629,4.883
1584600274.427,-12.207,22.949,29.297,-79.102,-7.324
1584600274.431,-0.977,25.879,29.297,-69.824,38.086
1584600274.435,48.340,33.691,32.227,123.047,71.289
1584600274.438,53.711,34.668,29.785,147.461,10.742
1584600274.442,17.578,27.344,20.508,-42.480,50.293
1584600274.446,17.578,25.391,20.020,-104.004,84.961
1584600274.450,49.316,30.273,26.855,81.543,70.312
1584600274.454,54.199,30.762,29.785,169.434,26.367
1584600274.458,18.555,23.926,29.297,12.207,35.156
1584600274.462,-2.930,20.996,32.227,-115.234,49.316
1584600274.466,24.414,29.297,36.133,21.973,4.395
1584600274.470,44.434,30.273,35.156,173.340,10.254
1584600274.474,15.137,20.508,30.762,67.383,19.043
1584600274.477,-16.602,15.625,30.762,-114.258,11.230
1584600274.481,9.766,22.949,34.668,-40.527,12.695
1584600274.485,47.363,32.227,34.668,158.691,30.762
1584600274.489,29.297,28.320,32.227,123.047,42.969
1584600274.493,-10.742,18.555,29.785,-79.590,-2.930
1584600274.497,0.977,20.020,29.785,-82.031,-6.348
1584600274.501,48.828,24.902,31.250,117.188,30.762
1584600274.505,43.945,23.438,32.227,157.715,0.977
1584600274.509,-9.766,20.020,28.320,-24.902,32.227
1584600274.513,-13.672,26.367,26.855,-106.445,90.820
1584600274.517,37.598,33.691,30.273,71.777,64.453
1584600274.520,57.617,31.738,27.832,178.711,50.781
1584600274.524,26.855,27.344,23.438,16.602,45.410
1584600274.528,-5.859,22.949,25.391,-120.117,-53.711
1584600274.532,21.484,28.320,29.785,13.672,-16.602
1584600274.536,63.477,34.668,28.320,171.875,39.062
1584600274.540,45.898,31.738,24.414,79.590,12.207
1584600274.544,6.348,24.414,21.973,-101.562,-3.906
1584600274.548,22.461,26.855,26.367,-42.969,30.762
1584600274.552,59.082,31.738,28.320,152.832,58.594
1584600274.556,53.223,28.809,21.973,126.953,48.828
1584600274.560,18.066,23.438,20.020,-71.289,52.734
1584600274.563,20.508,28.320,21.484,-90.332,2.930
1584600274.567,56.152,33.203,24.414,104.980,-33.691
1584600274.571,48.340,29.297,28.809,162.598,25.879
1584600274.575,8.789,23.438,24.902,-12.695,35.645
1584600274.579,-2.441,24.902,20.020,-109.375,25.391
1584600274.583,35.156,32.227,24.414,45.410,80.566
1584600274.587,54.199,35.645,28.320,165.527,64.453
1584600274.591,25.879,27.832,23.926,41.504,8.789
1584600274.595,-9.277,20.508,22.949,-108.887,9.766
1584600274.599,16.602,29.297,27.832,-9.766,79.102
1584600274.602,61.523,34.180,32.715,165.039,59.570
1584600274.606,45.898,26.367,31.250,95.215,-4.395
1584600274.610,4.395,19.531,24.414,-94.727,15.625
1584600274.614,9.766,24.902,26.367,-53.223,35.156
1584600274.618,46.387,33.203,33.203,143.555,45.410
1584600274.622,42.480,29.785,32.227,144.531,69.824
1584600274.626,2.930,19.043,26.855,-44.922,50.781
1584600274.630,-1.953,19.531,27.344,-97.168,10.254
1584600274.634,45.410,29.297,35.156,95.215,35.645
1584600274.638,52.734,32.715,32.715,174.805,63.965
1584600274.642,12.207,23.926,25.391,2.930,54.199
1584600274.645,2.441,18.555,27.832,-108.398,78.613
1584600274.649,41.504,28.320,30.273,43.457,31.738
1584600274.653,65.918,33.691,28.809,183.594,-7.324
1584600274.657,40.039,25.391,26.855,69.336,71.777
1584600274.661,3.906,16.602,25.391,-99.609,68.359
1584600274.665,26.367,23.438,31.250,-12.207,40.527
1584600274.669,65.430,30.273,38.086,172.363,46.875
1584600274.673,42.480,24.902,36.621,112.793,55.176
1584600274.677,6.836,24.902,33.691,-82.520,9.277
1584600274.681,13.672,28.320,30.762,-63.477,-6.348
1584600274.685,50.781,28.809,31.738,130.859,24.414
1584600274.688,57.129,27.832,32.227,156.738,20.508
1584600274.692,12.207,21.484,28.320,-27.832,20.508
1584600274.696,1.465,21.484,25.391,-91.797,0.000
1584600274.700,49.316,30.273,27.832,83.984,49.805
1584600274.704,69.824,32.227,30.762,172.852,57.617
1584600274.708,30.273,25.391,25.879,21.484,36.621
1584600274.712,0.000,21.484,21.973,-109.375,59.082
1584600274.716,19.531,27.832,26.855,10.254,29.297
1584600274.720,43.945,34.668,31.250,158.203,44.434
1584600274.724,25.391,36.621,24.902,61.523,-4.395
1584600274.727,-4.883,30.762,20.020,-109.375,-11.230
1584600274.731,14.648,28.320,23.438,-36.621,2.441
1584600274.735,53.711,33.691,28.320,150.391,-13.672
1584600274.739,39.551,31.738,29.297,118.652,29.785
1584600274.743,-4.395,25.879,26.855,-78.125,16.602
1584600274.747,7.324,30.273,31.738,-85.449,8.301
1584600274.751,49.316,34.668,35.645,115.234,14.160
1584600274.755,44.922,32.227,33.203,163.574,35.645
1584600274.759,-0.977,21.973,25.879,-23.438,49.316
1584600274.763,-8.301,18.555,26.855,-112.793,34.180
1584600274.767,38.574,28.809,34.180,61.035,9.277
1584600274.770,49.316,29.785,35.645,172.852,-13.672
1584600274.774,11.230,20.508,32.715,30.762,2.441
1584600274.778,-13.672,20.996,29.297,-107.422,45.898
1584600274.782,15.625,31.738,32.227,15.625,46.387
1584600274.786,50.293,35.156,34.668,171.875,28.809
1584600274.790,35.156,22.949,31.250,78.613,54.688
1584600274.794,4.395,18.066,28.320,-97.168,92.773
1584600274.798,19.043,27.832,34.668,-40.039,69.824
1584600274.802,51.270,34.668,39.551,142.578,46.387
1584600274.806,35.156,27.832,38.086,121.094,2.441
1584600274.810,-12.207,20.020,34.180,-75.195,3.418
1584600274.813,-9.277,25.391,33.203,-95.215,41.504
1584600274.817,38.574,31.250,35.645,100.586,90.332
1584600274.821,45.410,29.297,36.621,153.809,41.992
1584600274.825,8.789,21.973,33.691,-25.879,-11.719
1584600274.829,-0.488,21.484,32.715,-118.652,-19.531
1584600274.833,44.922,29.297,39.062,44.922,-3.418
1584600274.837,58.105,33.203,40.039,175.293,53.223
1584600274.841,15.625,29.785,32.715,38.574,40.039
1584600274.845,-12.695,25.879,32.227,-121.582,2.930
1584600274.849,17.090,29.785,37.598,-9.766,24.414
1584600274.852,55.176,34.180,35.645,153.320,41.992
1584600274.856,37.598,31.738,34.180,83.008,34.668
1584600274.860,1.953,22.949,34.668,-95.215,22.949
1584600274.864,22.461,27.832,32.715,-59.570,22.949
1584600274.868,65.918,34.668,35.156,139.160,-15.137
1584600274.872,52.246,30.273,36.621,145.508,16.113
1584600274.876,1.953,24.414,33.691,-49.805,57.617
1584600274.880,-5.859,25.879,34.180,-92.285,9.766
1584600274.884,34.180,34.668,38.574,98.145,-17.090
1584600274.888,48.828,36.133,37.109,165.039,-21.484
1584600274.892,23.438,25.391,30.273,-5.371,-15.625
1584600274.895,6.348,19.043,26.855,-118.164,8.789
1584600274.899,41.504,27.344,33.203,28.809,22.949
1584600274.903,60.059,31.250,37.598,177.734,86.426
1584600274.907,18.555,21.973,32.715,65.430,63.965
1584600274.911,-10.742,17.090,27.832,-101.562,-8.789
1584600274.915,18.066,24.414,29.785,-12.695,7.812
1584600274.919,56.152,30.762,34.668,158.203,41.016
1584600274.923,40.039,23.926,34.668,101.074,7.812
1584600274.927,-0.488,17.090,30.273,-88.379,25.391
1584600274.931,1.953,26.367,30.762,-67.383,68.359
1584600274.935,37.109,33.203,36.621,129.395,47.363
1584600274.938,41.992,25.391,36.621,150.879,62.500
1584600274.942,4.395,15.137,32.227,-38.086,22.949
1584600274.946,0.000,19.531,32.227,-104.492,-16.602
1584600274.950,46.387,32.227,34.180,72.266,34.180
1584600274.954,65.430,30.762,34.668,168.945,30.762
1584600274.958,28.809,21.973,30.762,7.812,41.992
1584600274.962,-9.277,21.484,30.273,-121.094,75.684
1584600274.966,21.973,31.738,33.203,22.461,43.945
1584600274.970,51.270,39.062,32.715,171.875,26.855
1584600274.974,13.184,29.785,32.227,68.848,50.781
1584600274.977,-22.461,21.973,27.832,-108.887,66.406
1584600274.981,10.254,27.344,29.297,-39.551,37.109
1584600274.985,54.199,31.738,32.715,146.973,49.805
1584600274.989,41.504,27.344,30.273,117.188,52.246
1584600274.993,0.000,20.508,24.902,-84.961,62.500
1584600274.997,6.348,24.902,25.391,-96.191,51.758
1584600275.001,45.898,30.273,34.180,104.980,41.992
1584600275.005,39.062,30.762,33.203,142.578,37.598
1584600275.009,-1.953,26.855,28.320,-37.598,36.621
1584600275.013,-3.906,20.996,28.320,-115.234,53.711
1584600275.017,44.434,29.297,32.227,55.664,-4.395
1584600275.020,63.965,35.156,34.668,161.621,3.418
1584600275.024,16.113,24.414,34.668,18.066,52.246
1584600275.028,-18.555,21.484,35.156,-125.488,1.465
1584600275.032,15.137,31.738,34.180,-6.348,-26.855
1584600275.036,45.410,31.738,35.645,162.109,3.418
1584600275.040,26.367,27.344,33.203,79.590,38.574
1584600275.044,-9.766,22.461,29.785,-108.887,19.531
1584600275.048,2.441,25.879,34.180,-52.734,19.043
1584600275.052,43.945,35.156,39.062,145.508,23.438
1584600275.056,44.434,30.273,37.109,131.836,66.406
1584600275.060,10.254,20.508,28.320,-67.383,68.848
1584600275.063,10.254,24.902,28.320,-94.238,10.254
1584600275.067,41.992,33.203,33.203,102.539,6.836
1584600275.071,38.086,30.273,34.180,166.016,24.414
1584600275.075,8.789,22.949,28.320,-14.160,6.836
1584600275.079,4.883,23.438,24.414,-107.910,7.812
1584600275.083,53.223,31.738,28.809,55.176,63.477
1584600275.087,70.801,35.156,32.715,172.852,51.270
1584600275.091,27.832,29.785,31.250,41.504,3.906
1584600275.095,-1.953,23.926,29.785,-118.164,-5.371
1584600275.099,27.344,29.297,36.621,-8.301,-2.930
1584600275.102,63.477,32.715,39.062,172.852,35.645
1584600275.106,45.898,28.809,33.691,102.051,54.199
1584600275.110,4.883,24.414,31.738,-88.867,21.484
1584600275.114,15.137,27.832,33.691,-51.270,-1.953
1584600275.118,60.059,33.203,34.668,136.719,-20.508
1584600275.122,47.852,32.715,33.203,140.137,-13.672
1584600275.126,0.488,24.414,29.297,-49.316,16.113
1584600275.130,1.465,19.531,29.785,-94.238,49.316
1584600275.134,49.316,26.367,33.203,94.238,45.410
1584600275.138,59.570,28.809,32.227,165.527,17.578
1584600275.142,19.531,22.949,28.809,-3.418,-4.883
1584600275.145,-2.441,20.508,26.855,-112.305,5.859
1584600275.149,29.785,22.461,31.738,38.574,29.785
1584600275.153,54.688,23.926,30.273,168.457,42.480
1584600275.157,27.344,22.461,23.926,44.434,44.434
1584600275.161,-4.883,19.531,24.414,-122.070,12.695
1584600275.165,12.207,26.855,30.762,-33.691,69.824
1584600275.169,39.062,33.203,37.109,154.785,88.867
1584600275.173,27.344,24.414,37.109,105.957,34.668
1584600275.177,-11.230,17.090,27.832,-91.797,9.766
1584600275.181,-1.465,20.508,28.320,-78.613,-28.320
1584600275.185,48.828,28.320,38.574,118.164,-0.488
1584600275.188,56.152,29.785,37.109,142.090,56.152
1584600275.192,14.648,17.578,33.203,-42.969,75.195
1584600275.196,-5.371,15.625,32.227,-107.422,17.090
1584600275.200,28.809,27.344,35.645,80.078,37.109
1584600275.204,42.969,27.832,36.621,174.805,25.879
1584600275.208,7.324,18.066,28.809,7.324,-36.133
1584600275.212,-13.184,15.137,25.879,-125.000,-28.320
1584600275.216,20.508,22.461,32.227,14.648,1.465
1584600275.220,49.316,23.438,32.715,168.457,-3.418
1584600275.224,29.297,19.043,25.391,64.941,-6.348
1584600275.227,-4.395,17.578,24.414,-118.652,50.781
1584600275.231,18.555,23.926,28.809,-46.875,38.086
1584600275.235,49.805,26.367,32.227,148.926,-20.020
1584600275.239,20.996,20.996,30.273,113.770,11.230
1584600275.243,-17.090,18.555,29.297,-73.242,33.203
1584600275.247,-3.418,21.484,32.227,-79.590,29.297
1584600275.251,47.363,24.902,33.691,104.980,40.527
1584600275.255,46.875,24.414,32.715,148.926,34.180
1584600275.259,-1.953,17.090,25.879,-34.668,11.719
1584600275.263,-10.254,17.578,27.344,-116.211,-8.789
1584600275.267,33.203,30.762,37.109,61.523,58.105
1584600275.270,44.922,29.785,38.086,169.434,76.660
1584600275.274,8.301,19.043,33.691,17.578,-2.930
1584600275.278,-13.672,20.508,31.250,-117.676,-19.043
1584600275.282,15.625,29.785,37.109,3.418,-37.598
1584600275.286,56.152,36.621,37.598,158.203,16.602
1584600275.290,30.762,29.297,36.621,79.590,104.492
1584600275.294,-19.043,19.531,34.180,-103.027,82.031
1584600275.298,-0.488,25.391,35.645,-52.246,18.555
1584600275.302,49.805,31.738,37.598,143.555,42.969
1584600275.306,45.898,28.809,35.156,131.348,45.410
1584600275.310,5.371,21.973,34.180,-61.523,8.789
1584600275.313,3.418,23.926,35.645,-77.637,26.855
1584600275.317,46.387,33.691,44.434,121.094,18.066
1584600275.321,54.688,28.809,48.340,165.527,-8.301
1584600275.325,9.766,20.508,39.062,-16.602,-7.812
1584600275.329,-2.930,20.508,35.156,-112.305,8.789
1584600275.333,41.504,25.879,43.457,49.316,38.574
1584600275.337,63.965,31.250,40.527,173.340,21.973
1584600275.341,41.016,25.879,31.738,44.434,-33.691
1584600275.345,7.324,22.461,29.297,-111.816,-20.508
1584600275.349,23.926,29.297,32.715,-4.395,12.207
1584600275.352,55.176,32.715,35.645,170.898,10.254
1584600275.356,31.738,26.367,33.203,106.934,39.062
1584600275.360,-10.742,20.508,30.762,-85.449,37.109
1584600275.364,5.859,26.367,35.156,-58.594,46.387
1584600275.368,52.734,34.668,39.062,138.672,90.332
1584600275.372,52.246,29.785,34.668,141.113,55.664
1584600275.376,13.672,20.508,26.855,-58.105,8.789
1584600275.380,7.812,22.949,27.832,-103.516,15.137
1584600275.384,46.875,31.250,35.645,92.285,51.270
1584600275.388,49.805,28.320,35.156,169.922,98.145
1584600275.392,5.859,19.043,32.715,3.906,39.551
1584600275.395,-12.695,20.996,31.250,-113.770,-25.879
1584600275.399,24.414,27.832,31.738,33.691,47.852
1584600275.403,48.828,28.809,29.785,172.363,44.434
1584600275.407,17.578,24.902,26.367,56.641,-8.789
1584600275.411,-12.695,20.508,24.902,-112.305,-4.395
1584600275.415,18.066,27.832,30.273,-29.785,21.973
1584600275.419,53.223,32.715,35.156,153.320,0.000
1584600275.423,26.367,26.855,29.785,98.145,14.160
1584600275.427,-19.043,20.508,23.438,-99.121,51.270
1584600275.431,-6.836,22.461,24.414,-79.102,18.555
1584600275.435,36.621,32.715,32.227,117.188,61.035
1584600275.438,38.086,31.738,32.227,142.090,94.238
1584600275.442,0.977,19.043,26.367,-46.875,68.359
1584600275.446,0.977,17.578,26.367,-114.746,72.754
1584600275.450,52.734,27.344,29.785,65.918,30.762
1584600275.454,59.082,31.250,29.785,162.598,7.812
1584600275.458,10.742,24.414,25.879,6.836,52.734
1584600275.462,-8.789,20.996,23.438,-119.629,28.809
1584600275.466,32.715,28.809,28.320,13.184,31.738
1584600275.470,62.012,31.738,34.180,156.250,59.082
1584600275.474,24.414,25.879,27.832,61.523,46.875
1584600275.477,-16.113,19.531,23.438,-109.863,52.246
1584600275.481,11.230,24.902,26.367,-31.250,33.691
1584600275.485,50.781,31.738,29.297,149.902,2.441
1584600275.489,31.250,28.320,27.832,109.863,12.207
1584600275.493,-9.277,21.484,24.414,-80.078,-58.105
1584600275.497,8.789,25.391,25.879,-87.891,-31.250
1584600275.501,52.246,34.180,29.785,111.328,66.895
1584600275.505,38.574,30.762,29.297,155.273,50.293
1584600275.509,-7.324,18.066,25.879,-33.203,14.160
1584600275.513,-18.555,15.137,25.879,-121.094,12.695
1584600275.517,29.785,27.344,30.762,53.223,-42.480
1584600275.520,47.852,30.273,33.691,175.293,-23.926
1584600275.524,4.395,20.020,29.785,21.973,48.828
1584600275.528,-13.672,18.066,27.344,-130.371,28.320
1584600275.532,28.320,29.297,34.668,0.000,1.953
1584600275.536,58.105,29.785,37.109,165.527,10.742
1584600275.540,25.879,20.996,29.785,79.590,31.250
1584600275.544,-18.066,18.555,24.902,-107.422,82.520
1584600275.548,-1.953,22.949,29.297,-58.105,37.598
1584600275.552,39.551,26.367,37.109,136.719,-13.672
1584600275.556,38.086,23.926,32.715,119.629,6.836
1584600275.560,0.000,19.531,30.762,-74.707,0.488
1584600275.563,-7.812,21.973,36.133,-99.121,14.648
1584600275.567,37.109,30.762,39.551,89.355,23.926
1584600275.571,55.176,29.297,37.109,146.484,21.973
1584600275.575,13.184,19.531,31.250,-27.832,32.227
1584600275.579,-9.277,22.949,27.832,-119.629,48.340
1584600275.583,25.879,28.809,33.691,41.016,47.363
1584600275.587,42.480,28.320,36.133,164.551,31.250
1584600275.591,10.254,26.367,29.785,36.621,9.277
1584600275.595,-14.648,20.020,28.320,-121.094,10.254
1584600275.599,15.137,20.996,32.227,-10.254,13.672
1584600275.602,49.805,24.414,33.691,158.691,49.805
1584600275.606,31.738,23.438,31.250,81.055,38.086
1584600275.610,-6.836,17.090,25.879,-103.516,19.043
1584600275.614,5.859,19.531,27.832,-67.871,6.836
1584600275.618,46.387,29.785,36.621,136.230,54.688
1584600275.622,38.086,27.832,36.133,139.160,73.730
1584600275.626,-5.371,19.531,32.715,-57.129,0.488
1584600275.630,-6.348,21.484,36.133,-100.586,17.578
1584600275.634,34.668,32.227,39.062,90.820,42.480
1584600275.638,44.434,31.738,37.598,168.945,48.828
1584600275.642,8.301,20.508,31.738,-1.465,34.180
1584600275.645,-6.836,19.531,28.809,-113.770,35.156
1584600275.649,28.320,27.344,37.109,32.227,91.797
1584600275.653,43.457,28.809,39.551,166.992,59.570
1584600275.657,14.648,23.926,33.203,54.688,28.809
1584600275.661,-7.324,20.996,29.297,-110.840,59.570
1584600275.665,19.043,25.391,32.227,-26.367,59.570
1584600275.669,50.781,28.320,36.621,152.344,56.152
1584600275.673,36.621,27.344,34.668,101.562,51.270
1584600275.677,8.301,23.438,28.320,-93.750,10.742
1584600275.681,7.812,24.902,29.785,-75.195,25.391
1584600275.685,35.156,30.273,32.715,125.000,37.598
1584600275.688,44.434,31.738,28.809,150.391,3.418
1584600275.692,15.625,25.391,27.344,-39.062,10.742
1584600275.696,3.906,22.949,28.809,-109.375,24.902
1584600275.700,25.879,29.785,33.691,75.684,28.320
1584600275.704,34.668,31.738,35.645,173.340,23.926
1584600275.708,0.977,25.391,32.715,10.254,20.996
1584600275.712,-17.090,25.391,35.156,-120.605,27.832
1584600275.716,29.785,33.203,42.480,20.996,54.199
1584600275.720,58.594,31.738,43.945,170.410,27.832
1584600275.724,31.738,26.367,35.645,72.266,-31.250
1584600275.727,2.441,26.855,29.785,-101.074,36.621
1584600275.731,28.320,33.691,32.227,-42.969,2.441
1584600275.735,70.312,35.645,34.180,141.602,-29.297
1584600275.739,38.086,25.879,33.203,117.188,52.246
1584600275.743,-23.438,19.043,31.250,-76.660,66.895
1584600275.747,-12.695,24.414,31.250,-83.496,36.133
1584600275.751,44.922,29.297,36.133,110.352,29.297
1584600275.755,53.711,28.809,35.156,147.461,-3.906
1584600275.759,14.160,26.367,29.785,-33.691,-9.766
1584600275.763,-1.953,27.344,30.273,-105.957,51.270
1584600275.767,35.156,34.668,38.574,66.895,31.250
1584600275.770,60.547,35.645,41.016,179.199,62.988
1584600275.774,27.344,25.879,35.645,38.086,38.574
1584600275.778,2.930,20.996,32.715,-115.234,8.301
1584600275.782,33.691,28.320,32.227,-1.465,62.012
1584600275.786,56.152,34.668,34.180,166.016,41.504
1584600275.790,33.203,29.297,32.227,82.520,5.859
1584600275.794,-4.883,20.508,27.344,-103.516,35.156
1584600275.798,10.742,23.926,30.273,-59.082,38.086
1584600275.802,48.828,31.250,33.691,138.672,-10.254
1584600275.806,30.762,27.344,30.273,130.371,17.578
1584600275.810,-7.324,20.996,25.391,-68.359,55.176
1584600275.813,1.465,24.414,27.832,-90.332,12.207
1584600275.817,48.828,34.668,33.203,97.168,-39.062
1584600275.821,61.523,36.621,30.273,156.738,-40.527
1584600275.825,20.020,28.809,28.809,-9.766,37.598
1584600275.829,-0.977,27.832,31.250,-105.957,47.852
1584600275.833,37.598,39.551,31.738,52.734,-25.879
1584600275.837,61.035,41.992,32.715,178.711,11.719
1584600275.841,23.926,26.855,29.297,44.434,14.648
1584600275.845,-17.090,19.531,28.809,-115.234,-15.625
1584600275.849,11.719,27.344,33.691,-12.207,34.180
1584600275.852,52.246,33.691,35.645,164.551,54.199
1584600275.856,36.133,30.273,34.180,99.609,33.691
1584600275.860,4.883,26.855,29.297,-96.680,35.156
1584600275.864,14.648,30.762,29.297,-67.871,35.156
1584600275.868,39.062,37.109,35.156,135.742,91.797
1584600275.872,28.809,33.203,37.109,139.160,97.656
1584600275.876,-18.066,22.949,32.227,-54.688,11.719
1584600275.880,-18.555,24.902,27.832,-98.145,31.738
1584600275.884,31.738,30.273,36.133,91.309,36.621
1584600275.888,41.016,28.809,35.645,162.109,24.902
1584600275.892,5.859,23.438,30.273,-8.301,6.836
1584600275.895,-13.184,23.438,34.668,-111.328,28.320
1584600275.899,20.508,31.738,35.156,33.691,86.426
1584600275.903,52.734,39.062,33.691,164.551,68.359
1584600275.907,21.973,34.668,30.273,52.734,46.875
1584600275.911,-12.207,24.902,25.391,-111.816,35.645
1584600275.915,20.508,27.832,33.203,-25.879,49.316
1584600275.919,62.988,34.180,39.062,156.738,0.000
1584600275.923,42.969,28.320,31.738,111.328,18.066
1584600275.927,1.465,20.996,24.414,-87.402,49.316
1584600275.931,11.230,25.879,27.344,-81.055,11.719
1584600275.935,50.781,35.156,33.691,115.234,-11.719
1584600275.938,48.340,34.180,32.227,139.648,-7.812
1584600275.942,0.488,21.973,28.809,-42.969,32.715
1584600275.946,-11.719,25.391,32.227,-103.516,50.781
1584600275.950,32.227,35.645,40.039,75.195,39.062
1584600275.954,52.734,31.738,40.039,166.992,32.227
1584600275.958,9.766,24.902,31.250,12.695,32.227
1584600275.962,-22.461,23.438,29.785,-113.281,14.648
1584600275.966,14.160,28.809,33.691,19.043,-6.836
1584600275.970,45.898,34.180,33.203,169.434,41.992
1584600275.974,19.043,28.809,29.785,64.453,44.434
1584600275.977,-16.602,23.438,28.320,-120.605,30.762
1584600275.981,14.648,32.227,33.691,-45.898,29.297
1584600275.985,57.129,39.551,37.109,152.344,41.992
1584600275.989,35.156,28.320,35.645,116.699,-14.160
1584600275.993,3.906,21.484,33.203,-78.125,-17.578
1584600275.997,23.926,29.297,30.273,-84.473,25.879
1584600276.001,54.688,34.668,32.715,117.188,11.230
1584600276.005,50.781,29.785,33.203,158.203,-1.953
1584600276.009,16.113,19.043,26.855,-30.273,3.906
1584600276.013,0.977,20.020,26.855,-114.746,-6.836
1584600276.017,35.645,31.738,33.691,57.129,22.461
1584600276.020,53.223,32.715,30.273,170.410,35.645
1584600276.024,17.578,21.973,25.879,20.996,41.504
1584600276.028,-5.859,20.996,28.320,-117.188,108.398
1584600276.032,25.879,31.738,33.691,8.301,78.125
1584600276.036,62.500,37.109,36.621,165.527,52.734
1584600276.040,45.410,29.785,35.645,83.496,49.805
1584600276.044,3.906,24.414,33.203,-94.727,40.039
1584600276.048,14.648,28.809,35.156,-41.992,18.555
1584600276.052,44.434,32.227,37.109,152.832,27.344
1584600276.056,37.598,27.344,33.203,131.836,56.641
1584600276.060,2.930,21.973,30.762,-61.035,65.918
1584600276.063,9.766,27.832,32.227,-84.473,15.625
1584600276.067,60.547,36.133,34.180,104.980,31.738
1584600276.071,67.871,37.109,36.133,161.133,81.055
1584600276.075,22.949,28.809,32.227,-11.719,37.109
1584600276.079,-1.465,24.902,28.809,-109.375,23.438
1584600276.083,22.949,32.715,32.227,44.434,14.648
1584600276.087,52.246,33.691,34.180,169.434,-18.555
1584600276.091,28.809,27.344,35.645,49.805,-0.488
1584600276.095,-0.488,22.949,35.156,-103.516,48.828
1584600276.099,30.762,28.809,36.621,-3.906,22.949
1584600276.102,55.176,34.668,44.922,166.992,1.465
1584600276.106,31.738,29.297,44.922,101.562,-11.719
1584600276.110,-3.906,21.973,38.574,-90.332,-29.785
1584600276.114,16.602,23.926,38.574,-61.035,-2.930
1584600276.118,58.594,31.738,42.480,140.137,22.949
1584600276.122,45.898,33.203,39.062,150.391,-9.277
1584600276.126,5.859,25.391,34.668,-39.551,8.789
1584600276.130,6.348,24.902,38.574,-89.844,54.199
1584600276.134,41.504,33.203,46.875,92.285,36.133
1584600276.138,50.781,33.691,50.293,166.992,21.484
1584600276.142,16.113,23.438,41.992,7.324,16.113
1584600276.145,-8.301,20.020,39.062,-110.840,6.348
1584600276.149,33.691,29.297,40.039,24.902,19.531
1584600276.153,63.965,33.691,41.992,166.504,53.711
1584600276.157,34.668,28.320,37.598,55.176,75.684
1584600276.161,2.441,23.926,32.715,-113.281,49.805
1584600276.165,21.973,31.738,38.086,-21.484,36.133
1584600276.169,54.199,35.156,44.922,166.016,62.012
1584600276.173,49.316,23.438,41.992,116.699,72.754
1584600276.177,18.555,17.578,37.598,-68.848,20.996
1584600276.181,22.461,27.832,38.086,-58.105,-11.719
1584600276.185,47.363,39.551,35.156,126.465,6.836
1584600276.188,38.086,37.109,30.762,144.531,13.184
1584600276.192,-5.371,27.344,28.320,-47.363,-20.508
1584600276.196,-14.648,28.809,27.832,-114.258,-43.457
1584600276.200,38.086,37.109,30.762,69.336,-11.719
1584600276.204,51.758,36.133,29.297,153.320,5.859
1584600276.208,13.184,30.762,24.414,-9.277,12.207
1584600276.212,-17.090,32.227,27.832,-129.883,21.973
1584600276.216,5.859,36.133,35.156,3.418,58.105
1584600276.220,35.156,31.738,35.156,153.320,43.457
1584600276.224,14.648,27.832,31.738,62.012,46.875
1584600276.227,-16.602,25.391,27.832,-104.980,68.359
1584600276.231,1.465,27.832,26.367,-49.316,39.551
1584600276.235,50.781,34.180,31.250,131.348,-7.812
1584600276.239,44.434,30.273,31.738,106.934,29.785
1584600276.243,2.930,21.484,26.855,-86.914,40.527
1584600276.247,6.348,23.438,25.879,-93.262,-2.930
1584600276.251,41.504,34.668,30.273,106.445,69.336
1584600276.255,41.504,33.691,30.273,155.273,68.848
1584600276.259,2.930,27.344,25.879,-27.344,13.184
1584600276.263,-11.230,27.832,25.391,-117.188,19.531
1584600276.267,28.809,34.180,31.738,53.711,26.855
1584600276.270,52.734,37.598,28.809,172.363,62.988
1584600276.274,19.531,26.367,19.531,25.391,31.250
1584600276.278,-2.930,20.996,20.020,-123.535,27.344
1584600276.282,34.668,30.273,24.902,-5.859,38.086
1584600276.286,62.500,35.156,26.855,160.645,35.645
1584600276.290,14.160,25.879,22.461,83.984,55.664
1584600276.294,-34.668,18.555,18.066,-100.586,38.574
1584600276.298,-3.906,25.879,20.508,-57.129,12.695
1584600276.302,39.551,32.715,24.902,133.301,19.043
1584600276.306,33.691,29.785,25.391,125.000,29.297
1584600276.310,-4.395,20.508,22.461,-66.406,5.371
1584600276.313,-6.836,21.973,22.949,-93.750,-15.137
1584600276.317,35.645,33.203,28.320,100.586,57.129
1584600276.321,43.457,33.691,25.391,158.691,100.586
1584600276.325,5.859,24.902,17.090,-18.555,86.914
1584600276.329,-12.695,21.484,17.090,-125.000,72.754
1584600276.333,26.367,29.785,22.949,36.133,34.180
1584600276.337,58.594,34.180,24.414,164.551,40.527
1584600276.341,31.250,30.762,20.020,31.738,30.762
1584600276.345,-6.836,31.250,16.602,-126.465,24.902
1584600276.349,3.418,34.668,20.508,-24.414,68.848
1584600276.352,34.668,31.738,27.344,150.391,41.016
1584600276.356,27.832,26.367,27.344,93.750,27.832
1584600276.360,-8.789,21.484,20.996,-96.680,9.766
1584600276.364,0.000,24.902,19.043,-79.102,-40.527
1584600276.368,50.293,32.227,22.949,114.258,-25.879
1584600276.372,48.828,30.273,23.438,126.953,10.742
1584600276.376,-3.418,21.973,18.066,-65.918,37.598
1584600276.380,-12.207,23.926,19.531,-116.211,71.777
1584600276.384,29.785,34.668,26.855,77.148,1.465
1584600276.388,46.387,33.691,26.855,159.180,-7.812
1584600276.392,15.625,20.996,19.531,-5.859,25.391
1584600276.395,-2.930,17.090,17.578,-120.117,25.391
1584600276.399,24.414,29.297,25.879,23.926,24.414
1584600276.403,45.898,35.156,28.320,163.086,1.465
1584600276.407,20.020,24.414,25.391,52.246,20.508
1584600276.411,-9.766,20.508,26.367,-115.234,11.719
1584600276.415,19.043,30.273,31.738,-29.785,13.184
1584600276.419,61.035,35.645,29.785,156.738,20.508
1584600276.423,40.039,29.297,21.484,104.980,10.742
1584600276.427,-10.254,22.461,20.996,-90.820,30.762
1584600276.431,0.488,25.391,25.879,-74.707,20.020
1584600276.435,53.223,34.180,25.879,121.094,-13.672
1584600276.438,50.293,34.180,25.879,145.508,-5.859
1584600276.442,-3.906,23.438,23.926,-44.434,14.648
1584600276.446,-6.348,24.902,23.438,-112.305,43.945
1584600276.450,39.551,35.156,28.320,70.312,49.805
1584600276.454,52.734,30.762,25.879,162.109,28.320
1584600276.458,21.973,20.996,19.531,2.441,25.391
1584600276.462,-6.836,24.414,20.508,-128.418,65.918
1584600276.466,22.949,30.762,26.367,3.418,71.289
1584600276.470,57.617,32.715,29.297,158.691,8.789
1584600276.474,37.109,26.367,30.273,62.988,-26.367
1584600276.477,0.000,21.484,31.250,-107.422,-7.812
1584600276.481,12.695,27.344,30.762,-37.109,-24.414
1584600276.485,55.176,33.203,29.297,154.297,-31.250
1584600276.489,47.852,27.344,27.832,124.023,-54.199
1584600276.493,-5.371,18.555,24.902,-77.148,-29.785
1584600276.497,-8.301,20.996,27.832,-83.008,-7.324
1584600276.501,45.898,28.809,32.227,116.699,-18.066
1584600276.505,48.340,30.762,34.180,163.086,16.602
1584600276.509,0.488,24.414,31.738,-17.578,0.488
1584600276.513,-0.977,25.391,26.855,-105.469,25.879
1584600276.517,43.945,37.598,30.273,68.359,33.203
1584600276.520,61.035,40.039,32.715,179.688,9.766
1584600276.524,28.320,32.715,28.320,33.691,10.254
1584600276.528,-5.371,29.785,25.879,-116.699,4.883
1584600276.532,14.160,34.180,31.738,-0.488,69.336
1584600276.536,47.852,34.668,33.203,168.457,129.395
1584600276.540,32.227,30.762,22.949,84.961,55.664
1584600276.544,-9.277,23.926,21.484,-102.051,28.809
1584600276.548,5.371,22.949,30.273,-57.129,54.199
1584600276.552,55.664,32.715,33.691,138.184,21.484
1584600276.556,48.828,29.297,27.832,126.465,54.199
1584600276.560,-0.977,21.973,20.996,-72.754,70.312
1584600276.563,-1.953,25.879,22.949,-100.586,58.594
1584600276.567,40.527,35.645,29.785,92.285,100.098
1584600276.571,43.945,39.551,32.227,152.344,33.691
1584600276.575,4.395,31.250,25.391,-20.996,-7.812
1584600276.579,-12.695,26.855,22.949,-125.000,33.203
1584600276.583,21.973,33.203,28.809,30.762,50.293
1584600276.587,44.434,37.109,30.273,159.180,78.613
1584600276.591,23.926,30.762,26.855,38.086,22.949
1584600276.595,0.488,22.949,29.785,-121.582,20.508
1584600276.599,14.160,29.785,35.156,-23.926,41.992
1584600276.602,39.551,36.133,38.574,157.715,27.832
1584600276.606,27.344,29.785,35.645,92.773,46.875
1584600276.610,-6.836,22.949,30.762,-93.750,-9.766
1584600276.614,7.812,30.273,30.273,-66.895,-62.500
1584600276.618,54.688,37.109,33.203,126.465,-54.688
1584600276.622,50.293,31.738,35.645,139.160,20.508
1584600276.626,4.395,23.438,29.297,-58.594,83.496
1584600276.630,-0.977,23.438,24.414,-111.816,42.969
1584600276.634,41.016,30.762,28.320,74.219,15.137
1584600276.638,49.316,29.297,29.297,144.043,23.438
1584600276.642,17.090,24.902,30.273,-17.578,38.574
1584600276.645,0.977,23.926,31.250,-118.652,20.020
1584600276.649,38.086,31.250,31.738,29.785,12.695
1584600276.653,61.523,36.133,30.273,166.992,7.324
1584600276.657,21.973,28.320,27.832,56.641,55.664
1584600276.661,-3.418,24.414,26.367,-108.398,57.129
1584600276.665,35.156,30.273,28.809,-24.902,-14.648
1584600276.669,65.430,37.598,36.621,158.691,15.137
1584600276.673,37.598,32.227,36.621,115.234,57.129
1584600276.677,-2.441,24.902,31.738,-79.102,32.715
1584600276.681,8.301,30.273,33.691,-71.777,-9.766
1584600276.685,50.781,35.156,38.574,121.094,27.832
1584600276.688,49.805,34.668,38.086,140.625,4.395
1584600276.692,8.301,30.273,30.762,-37.109,-31.250
1584600276.696,6.836,27.832,28.320,-97.656,1.465
1584600276.700,49.316,32.227,32.227,67.383,32.227
1584600276.704,54.199,30.273,30.273,160.645,63.965
1584600276.708,21.484,22.461,23.926,7.812,94.238
1584600276.712,-2.441,18.066,20.996,-125.977,91.309
1584600276.716,21.973,27.832,25.879,7.812,89.844
1584600276.720,43.457,34.668,30.273,165.527,91.309
1584600276.724,20.508,27.832,23.926,69.336,27.832
1584600276.727,-6.836,22.461,21.484,-110.840,-20.020
1584600276.731,19.043,32.227,28.809,-46.875,12.207
1584600276.735,62.012,42.480,29.785,144.043,79.102
1584600276.739,41.992,34.180,27.344,125.000,97.168
1584600276.743,-3.418,21.973,25.391,-74.707,48.828
1584600276.747,-1.465,24.902,25.879,-95.215,0.977
1584600276.751,36.133,34.180,32.715,108.887,-15.625
1584600276.755,41.016,32.227,35.156,154.785,-6.348
1584600276.759,-1.953,24.902,28.320,-30.762,37.109
1584600276.763,-9.277,25.879,25.391,-117.188,43.457
1584600276.767,45.410,36.621,33.691,57.129,43.457
1584600276.770,68.359,37.109,37.598,171.875,36.133
1584600276.774,26.855,28.320,34.668,29.297,20.508
1584600276.778,-10.254,19.531,29.297,-109.375,16.113
1584600276.782,25.391,23.438,32.227,12.695,70.312
1584600276.786,65.430,31.250,37.598,178.711,69.336
1584600276.790,37.598,31.738,31.250,85.938,36.133
1584600276.794,-9.766,30.762,23.926,-110.352,68.848
1584600276.798,4.883,34.180,29.785,-62.500,45.410
1584600276.802,56.641,37.109,35.645,131.836,12.207
1584600276.806,50.293,33.203,30.762,125.000,-20.020
1584600276.810,3.418,27.832,26.855,-65.918,-14.160
1584600276.813,-4.395,29.785,28.320,-97.656,30.273
1584600276.817,34.180,38.086,32.227,87.402,8.301
1584600276.821,51.270,38.574,33.203,151.855,-2.930
1584600276.825,11.719,26.855,29.297,-18.066,-9.277
1584600276.829,-8.301,20.996,24.414,-124.023,-16.602
1584600276.833,32.227,31.250,28.809,28.320,-7.324
1584600276.837,54.199,35.156,34.668,156.250,8.301
1584600276.841,13.672,29.297,31.250,40.527,27.832
1584600276.845,-14.648,28.320,28.320,-112.305,42.480
1584600276.849,21.973,33.203,33.203,-14.160,-4.883
1584600276.852,63.477,36.133,38.574,159.668,-16.113
1584600276.856,47.852,32.715,35.645,101.074,60.059
1584600276.860,1.953,26.367,28.320,-87.891,50.293
1584600276.864,5.859,28.320,30.273,-63.965,35.645
1584600276.868,36.133,34.668,38.086,137.695,23.438
1584600276.872,25.879,32.227,38.574,146.973,26.367
1584600276.876,-5.859,25.879,34.180,-49.316,59.082
1584600276.880,-0.488,29.785,33.691,-95.703,74.219
1584600276.884,46.875,38.574,38.086,88.867,70.801
1584600276.888,54.688,32.715,36.621,171.387,49.316
1584600276.892,9.766,20.020,33.203,6.836,26.855
1584600276.895,-12.207,20.020,31.250,-116.699,59.570
1584600276.899,25.391,25.879,33.203,31.250,86.914
1584600276.903,58.594,28.809,32.715,174.805,83.496
1584600276.907,39.551,25.391,26.855,64.453,92.285
1584600276.911,8.789,26.855,21.973,-108.887,28.809
1584600276.915,23.438,37.598,21.973,-30.762,-11.719
1584600276.919,49.316,39.062,24.902,148.438,50.781
1584600276.923,30.762,31.250,24.414,97.168,46.387
1584600276.927,-9.766,25.391,22.949,-97.168,12.695
1584600276.931,0.977,29.297,25.391,-87.891,-6.836
1584600276.935,53.223,36.621,29.297,112.793,-38.086
1584600276.938,51.270,36.133,29.297,145.508,-1.465
1584600276.942,5.371,29.297,24.414,-36.621,34.180
1584600276.946,-6.836,29.297,23.926,-110.352,72.754
1584600276.950,34.180,38.574,30.273,62.012,82.520
1584600276.954,51.270,37.598,31.250,157.227,20.996
1584600276.958,14.160,25.391,26.367,6.348,-16.113
1584600276.962,-6.348,22.949,23.438,-124.023,-14.160
1584600276.966,25.879,30.762,29.785,7.812,-8.789
1584600276.970,50.781,36.621,29.297,160.156,6.348
1584600276.974,24.414,32.227,21.484,67.871,34.668
1584600276.977,-4.883,26.367,16.602,-108.887,55.176
1584600276.981,22.461,34.180,20.996,-49.805,9.766
1584600276.985,63.965,44.434,25.879,146.484,27.344
1584600276.989,43.457,40.039,26.855,127.441,56.641
1584600276.993,-10.254,29.785,24.902,-76.660,-22.461
1584600276.997,0.000,31.738,23.926,-95.215,-4.395
1584600277.001,53.223,35.645,27.832,98.145,53.711
1584600277.005,61.035,34.180,25.391,144.531,-3.906
1584600277.009,17.578,30.273,21.484,-34.180,-19.043
1584600277.013,-1.465,28.809,23.438,-122.559,28.320
1584600277.017,40.039,34.668,27.832,47.363,18.555
1584600277.020,56.152,33.691,27.344,168.945,24.414
1584600277.024,20.508,28.809,20.508,33.203,46.387
1584600277.028,-3.906,28.320,18.066,-116.211,8.789
1584600277.032,34.180,32.715,24.902,-6.836,16.602
1584600277.036,62.988,33.691,27.832,159.668,49.805
1584600277.040,50.293,27.832,23.438,80.078,8.301
1584600277.044,10.742,21.973,21.973,-109.863,-0.977
1584600277.048,11.719,23.438,23.926,-63.477,17.090
1584600277.052,44.434,29.785,26.367,133.301,22.949
1584600277.056,30.273,26.367,23.926,122.559,58.105
1584600277.060,-7.324,19.531,19.531,-70.801,68.359
1584600277.063,-5.371,20.020,23.438,-93.750,40.039
1584600277.067,31.738,23.438,30.273,99.609,10.742
1584600277.071,36.133,26.367,29.297,160.156,8.301
1584600277.075,-1.953,21.973,21.973,-10.254,52.734
1584600277.079,-12.207,21.973,21.484,-112.793,65.430
1584600277.083,32.715,32.227,25.879,43.945,46.387
1584600277.087,59.082,34.180,24.414,167.480,64.453
1584600277.091,22.949,29.297,21.484,38.086,59.570
1584600277.095,-20.996,24.902,20.020,-121.094,37.109
1584600277.099,9.277,29.785,23.438,-29.785,32.227
1584600277.102,39.062,32.227,26.855,144.043,1.465
1584600277.106,12.695,26.855,22.461,86.426,7.812
1584600277.110,-17.090,22.461,17.090,-96.191,16.113
1584600277.114,4.883,26.367,20.020,-68.848,50.781
1584600277.118,48.340,35.645,27.344,124.023,61.523
1584600277.122,47.852,34.668,26.367,138.672,76.660
1584600277.126,2.930,25.879,20.508,-50.781,87.402
1584600277.130,-8.789,23.926,20.020,-103.516,86.914
1584600277.134,38.574,32.227,23.926,81.055,122.559
1584600277.138,41.504,31.250,26.855,164.062,90.332
1584600277.142,3.906,23.438,22.949,2.930,33.203
1584600277.145,-13.184,20.508,23.438,-118.652,-20.508
1584600277.149,21.973,27.832,30.273,19.043,-28.320
1584600277.153,59.570,35.156,27.344,165.039,26.367
1584600277.157,35.645,28.809,20.508,60.547,83.008
1584600277.161,0.488,23.926,21.484,-116.211,31.250
1584600277.165,25.391,30.273,26.855,-41.016,-24.902
1584600277.169,58.594,35.156,29.785,147.949,-4.883
1584600277.173,36.133,32.715,25.879,109.375,7.812
1584600277.177,-10.254,28.320,24.414,-88.867,-41.992
1584600277.181,-1.465,32.227,25.879,-82.031,16.113
1584600277.185,52.734,37.598,29.297,119.629,55.176
1584600277.188,56.641,31.738,28.809,146.484,-45.410
1584600277.192,13.672,23.438,24.414,-37.109,1.465
1584600277.196,6.348,24.902,26.367,-105.957,51.270
1584600277.200,47.852,33.203,34.668,69.336,59.570
1584600277.204,63.477,32.715,34.180,172.363,62.988
1584600277.208,21.484,22.461,28.809,11.719,-23.926
1584600277.212,-2.930,18.555,27.344,-123.535,0.488
1584600277.216,35.645,25.879,31.250,17.090,60.059
1584600277.220,62.012,28.320,33.691,172.852,38.086
1584600277.224,34.180,20.996,27.344,71.289,20.020
1584600277.227,0.000,17.578,23.438,-107.910,10.742
1584600277.231,18.066,23.926,26.855,-43.945,45.410
1584600277.235,55.664,31.250,29.785,140.137,-2.930
1584600277.239,45.410,31.250,24.902,114.258,-2.930
1584600277.243,-0.488,20.020,20.508,-81.543,-20.508
1584600277.247,1.465,22.461,27.344,-95.703,-32.227
1584600277.251,36.133,30.273,30.273,98.633,10.742
1584600277.255,40.039,28.320,26.367,143.555,12.207
1584600277.259,-1.953,20.996,22.461,-32.227,23.438
1584600277.263,-18.555,20.020,22.461,-118.652,15.137
1584600277.267,29.785,30.762,28.320,49.316,9.277
1584600277.270,58.105,32.715,29.297,163.086,4.395
1584600277.274,26.855,21.973,24.902,23.438,-28.809
1584600277.278,-3.906,19.043,23.926,-122.070,-35.645
1584600277.282,23.438,30.273,25.879,-3.418,-41.016
1584600277.286,56.152,36.621,28.809,168.945,-6.348
1584600277.290,30.762,29.297,28.809,84.961,26.367
1584600277.294,-10.254,21.973,27.832,-99.609,49.316
1584600277.298,10.742,23.438,32.227,-56.152,5.859
1584600277.302,53.711,30.273,34.668,132.812,-30.762
1584600277.306,47.363,29.297,30.273,130.371,39.062
1584600277.310,6.836,20.020,20.508,-62.500,26.855
1584600277.313,13.672,23.438,21.484,-90.332,2.930
1584600277.317,54.199,32.715,27.344,104.004,35.645
1584600277.321,51.758,29.785,27.832,171.875,18.555
1584600277.325,17.578,22.949,27.832,0.977,7.812
1584600277.329,11.719,23.438,27.832,-104.004,25.391
1584600277.333,49.805,30.762,32.227,51.758,63.477
1584600277.337,69.824,34.180,35.156,174.805,29.785
1584600277.341,36.621,27.832,28.809,51.758,13.184
1584600277.345,-8.301,22.461,22.949,-113.281,39.062
1584600277.349,11.719,30.273,28.809,-22.461,31.738
1584600277.352,47.852,35.156,35.156,163.086,44.922
1584600277.356,31.738,31.250,32.227,99.609,46.387
1584600277.360,-2.441,24.902,25.391,-91.797,47.852
1584600277.364,10.254,25.879,25.879,-63.477,16.602
1584600277.368,53.223,31.738,27.344,132.324,44.922
1584600277.372,47.852,28.809,24.414,145.508,119.629
1584600277.376,6.348,23.438,20.508,-47.852,32.715
1584600277.380,2.930,25.879,20.020,-100.098,-20.020
1584600277.384,35.156,31.250,20.996,85.449,27.344
1584600277.388,51.270,30.273,21.973,158.691,0.977
1584600277.392,22.949,27.832,22.461,-12.695,-1.465
1584600277.395,7.324,26.367,21.484,-125.977,3.418
1584600277.399,38.086,29.297,27.344,27.832,52.246
1584600277.403,46.387,31.250,31.250,178.223,67.383
1584600277.407,10.254,22.461,26.855,65.918,18.555
1584600277.411,-20.996,17.578,23.438,-107.910,20.508
1584600277.415,9.766,23.926,28.809,-26.367,16.602
1584600277.419,54.688,28.809,31.738,155.762,1.953
1584600277.423,42.969,30.273,26.367,109.863,15.625
1584600277.427,2.441,26.367,23.438,-79.590,46.387
1584600277.431,7.812,25.391,26.367,-77.148,50.293
1584600277.435,52.246,36.621,30.273,120.117,27.344
1584600277.438,55.176,39.062,30.762,150.879,30.273
1584600277.442,10.254,22.949,27.832,-44.922,38.086
1584600277.446,-4.883,20.996,28.320,-108.398,28.809
1584600277.450,35.156,32.227,35.156,75.195,39.062
1584600277.454,53.711,33.691,35.156,171.387,23.926
1584600277.458,27.344,27.344,32.227,15.137,29.297
1584600277.462,9.277,25.391,30.273,-116.699,31.250
1584600277.466,31.738,32.227,34.668,20.508,32.715
1584600277.470,56.152,34.668,38.574,173.340,35.645
1584600277.474,36.133,28.809,35.156,79.590,22.949
1584600277.477,-2.441,23.438,34.668,-93.262,-7.324
1584600277.481,23.438,29.785,40.527,-26.855,-14.648
1584600277.485,70.801,39.551,41.016,156.738,20.996
1584600277.489,50.293,37.109,33.203,125.000,4.395
1584600277.493,-8.301,26.367,27.344,-71.289,-19.043
1584600277.497,-0.977,26.855,31.738,-90.820,38.086
1584600277.501,47.363,33.691,35.645,108.398,15.137
1584600277.505,39.551,33.691,33.203,157.715,21.484
1584600277.509,-3.418,28.809,26.855,-22.949,53.711
1584600277.513,-6.836,31.738,22.949,-111.328,12.207
1584600277.517,37.598,42.969,30.762,60.059,-26.855
1584600277.520,54.688,40.039,31.738,169.922,-10.742
1584600277.524,14.648,31.250,24.414,22.461,57.129
1584600277.528,-6.348,27.832,21.973,-119.629,28.320
1584600277.532,33.691,31.250,27.832,2.930,16.602
1584600277.536,58.105,34.180,31.250,172.852,44.434
1584600277.540,31.250,29.297,27.832,96.680,34.668
1584600277.544,-3.418,25.391,24.902,-84.473,40.039
1584600277.548,24.902,28.809,25.879,-47.852,46.387
1584600277.552,66.406,34.180,28.809,141.113,25.391
1584600277.556,54.199,35.156,28.809,136.719,32.715
1584600277.560,9.766,28.320,26.367,-57.617,32.227
1584600277.563,8.301,24.902,31.738,-85.938,70.312
1584600277.567,49.805,31.250,35.645,104.492,109.863
1584600277.571,54.688,29.785,31.250,162.109,95.703
1584600277.575,13.672,21.973,25.879,-11.230,104.980
1584600277.579,-4.883,22.461,24.902,-111.328,68.848
1584600277.583,35.156,29.297,28.809,40.039,29.297
1584600277.587,56.641,33.203,32.715,163.574,24.902
1584600277.591,23.438,29.785,30.273,50.293,65.918
1584600277.595,-9.277,24.902,28.809,-114.746,8.301
1584600277.599,21.973,28.809,31.738,-28.809,-1.465
1584600277.602,60.547,31.738,32.227,153.320,45.410
1584600277.606,23.438,25.391,29.297,98.633,-6.348
1584600277.610,-23.926,19.531,25.391,-91.309,24.902
1584600277.614,-2.930,24.902,26.367,-67.871,32.227
1584600277.618,47.363,33.203,32.715,124.512,-41.992
1584600277.622,56.152,31.738,30.273,134.277,-16.602
1584600277.626,18.555,24.902,21.973,-51.758,41.504
1584600277.630,1.465,25.391,23.438,-104.980,47.363
1584600277.634,36.621,28.809,31.738,84.473,53.711
1584600277.638,52.734,24.414,30.762,164.551,52.246
1584600277.642,12.695,18.555,26.367,-0.977,63.477
1584600277.645,-20.020,19.043,27.344,-116.699,38.086
1584600277.649,10.254,27.344,28.809,21.484,34.668
1584600277.653,40.039,29.297,28.320,163.574,67.383
1584600277.657,17.090,23.926,24.902,56.641,-2.441
1584600277.661,-4.395,24.902,21.484,-114.746,-2.930
1584600277.665,25.879,30.273,26.367,-30.762,58.105
1584600277.669,57.129,28.809,32.715,161.621,31.738
1584600277.673,34.668,24.902,30.762,114.258,-46.875
1584600277.677,-13.184,22.949,24.902,-78.613,-52.734
1584600277.681,-4.883,25.879,23.926,-73.242,23.438
1584600277.685,49.316,34.668,26.367,110.352,11.230
1584600277.688,58.105,34.180,27.344,140.625,8.789
1584600277.692,13.672,23.438,26.855,-40.039,34.180
1584600277.696,-1.953,26.367,26.855,-103.027,54.688
1584600277.700,39.062,35.645,30.762,74.707,62.500
1584600277.704,47.852,33.691,30.762,171.387,4.395
1584600277.708,9.766,25.879,26.367,19.043,1.953
1584600277.712,-13.672,20.020,26.855,-115.234,27.344
1584600277.716,18.066,23.438,28.320,11.719,-17.090
1584600277.720,48.828,29.297,27.344,161.621,-9.766
1584600277.724,24.414,24.414,24.414,71.289,-28.320
1584600277.727,-6.836,18.066,21.484,-106.445,-20.508
1584600277.731,16.113,19.531,28.320,-49.316,-0.488
1584600277.735,50.781,26.367,34.180,140.625,-12.695
1584600277.739,34.668,25.879,29.297,120.117,25.879
1584600277.743,-7.812,12.695,28.809,-72.266,80.566
1584600277.747,3.906,13.672,32.227,-86.914,68.848
1584600277.751,53.223,25.879,33.691,104.980,66.406
1584600277.755,56.641,25.391,30.762,148.926,104.004
1584600277.759,13.672,19.043,25.879,-27.344,59.570
1584600277.763,-5.371,18.555,28.320,-124.023,54.688
1584600277.767,43.945,30.273,35.156,38.086,45.410
1584600277.770,55.664,32.715,35.645,162.109,-32.715
1584600277.774,1.953,22.461,29.785,27.344,-55.176
1584600277.778,-16.113,22.949,27.344,-116.211,-42.480
1584600277.782,29.297,29.785,31.250,-1.465,23.926
1584600277.786,63.477,30.762,34.668,164.062,49.805
1584600277.790,40.527,22.949,34.668,83.008,18.066
1584600277.794,0.977,16.602,30.273,-106.445,25.879
1584600277.798,16.602,20.996,30.273,-61.035,46.875
1584600277.802,52.246,27.344,36.133,138.672,72.266
1584600277.806,38.574,25.391,36.133,128.906,6.836
1584600277.810,3.418,20.020,33.691,-60.059,6.836
1584600277.813,7.812,23.438,31.738,-92.285,20.508
1584600277.817,43.945,31.738,33.203,90.820,2.441
1584600277.821,43.457,31.250,34.180,160.156,41.504
1584600277.825,-1.953,22.461,29.785,-10.742,65.430
1584600277.829,-18.555,19.531,25.879,-114.258,62.012
1584600277.833,30.273,27.832,27.344,39.551,68.848
1584600277.837,62.988,29.297,31.738,167.969,87.891
1584600277.841,42.969,24.414,28.320,39.062,48.828
1584600277.845,12.695,21.973,23.926,-114.746,50.293
1584600277.849,19.043,24.902,30.762,-8.301,91.309
1584600277.852,43.457,30.273,31.250,155.273,111.816
1584600277.856,20.508,28.320,26.855,96.191,52.734
1584600277.860,-19.531,20.996,25.879,-89.355,9.766
1584600277.864,3.418,20.996,27.832,-69.336,42.969
1584600277.868,52.734,30.273,33.203,122.559,-7.324
1584600277.872,49.316,30.273,34.180,138.184,-21.973
1584600277.876,3.906,20.020,25.879,-43.457,11.719
1584600277.880,-1.953,20.996,23.438,-96.680,13.184
1584600277.884,41.992,30.273,25.391,83.008,24.902
1584600277.888,56.152,32.227,22.949,166.992,29.785
1584600277.892,14.648,25.879,23.926,12.207,39.062
1584600277.895,-14.648,22.461,26.855,-112.793,22.949
1584600277.899,24.902,28.809,32.227,22.461,58.105
1584600277.903,52.246,31.250,31.250,170.410,43.945
1584600277.907,18.555,20.020,23.926,59.570,0.488
1584600277.911,-9.277,15.137,20.996,-113.770,22.461
1584600277.915,27.344,23.438,27.832,-30.762,35.645
1584600277.919,65.918,27.832,34.180,155.762,32.227
1584600277.923,36.133,22.461,29.785,114.746,35.645
1584600277.927,-21.484,16.113,23.438,-80.566,37.598
1584600277.931,-18.066,20.020,27.344,-77.637,3.906
1584600277.935,31.250,28.320,33.203,120.117,-10.254
1584600277.938,37.598,27.344,32.715,152.344,45.410
1584600277.942,-6.348,15.625,27.832,-41.016,50.781
1584600277.946,-21.973,11.230,29.297,-114.258,42.969
1584600277.950,20.996,22.461,31.738,62.988,8.789
1584600277.954,40.039,25.391,27.344,165.527,0.977
1584600277.958,6.348,18.555,22.949,14.648,12.207
1584600277.962,-13.672,19.531,23.926,-124.023,2.930
1584600277.966,25.879,27.832,27.832,11.230,41.504
1584600277.970,53.711,32.227,28.320,168.457,64.941
1584600277.974,26.367,26.855,26.855,74.219,46.387
1584600277.977,-4.395,20.020,25.879,-103.516,30.762
1584600277.981,16.113,23.926,29.297,-43.945,14.160
1584600277.985,41.016,29.297,33.203,155.273,4.883
1584600277.989,22.461,25.391,32.227,131.836,28.809
1584600277.993,-11.719,21.484,25.879,-74.707,16.602
1584600277.997,-1.953,23.438,26.367,-90.820,21.484
1584600278.001,44.434,30.273,30.273,101.562,14.160
1584600278.005,54.199,31.738,28.809,147.461,2.441
1584600278.009,13.184,25.391,27.344,-24.414,26.855
1584600278.013,-3.906,23.438,24.902,-110.840,2.441
1584600278.017,32.715,31.250,27.832,51.270,14.648
1584600278.020,38.574,32.715,29.785,168.945,42.480
1584600278.024,8.789,26.367,26.855,33.203,11.230
1584600278.028,-11.230,21.973,25.391,-115.723,12.695
1584600278.032,17.090,27.344,26.855,-3.906,10.254
1584600278.036,56.152,34.180,28.809,168.457,23.438
1584600278.040,37.598,27.832,27.344,86.914,35.156
1584600278.044,-4.883,22.949,26.367,-105.469,19.531
1584600278.048,3.906,27.832,31.738,-60.059,-5.371
1584600278.052,41.992,33.203,36.133,137.207,-10.742
1584600278.056,40.039,28.809,31.738,133.301,4.883
1584600278.060,1.465,19.043,26.367,-64.453,13.672
1584600278.063,1.465,20.996,25.879,-99.609,43.457
1584600278.067,40.527,27.832,29.297,96.680,89.355
1584600278.071,47.852,24.902,31.250,168.457,65.918
1584600278.075,17.578,17.578,25.391,-7.324,39.062
1584600278.079,0.000,20.020,22.461,-118.164,82.031
1584600278.083,35.645,25.391,31.738,44.922,27.832
1584600278.087,53.223,25.879,32.227,172.363,36.133
1584600278.091,16.113,20.508,24.414,41.504,17.578
1584600278.095,-7.324,21.484,21.484,-118.652,-8.301
1584600278.099,29.297,30.762,28.809,-19.043,20.020
1584600278.102,62.988,31.250,35.156,164.062,-4.883
1584600278.106,43.945,27.832,31.738,104.004,63.477
1584600278.110,1.953,22.949,28.809,-90.820,83.496
1584600278.114,4.395,25.391,30.762,-61.523,-18.066
1584600278.118,47.852,32.715,33.691,136.230,-27.344
1584600278.122,47.852,32.715,30.762,143.555,44.434
1584600278.126,4.395,25.879,27.344,-46.875,22.461
1584600278.130,-9.277,24.414,29.297,-96.191,-19.531
1584600278.134,37.109,31.250,33.203,88.379,24.902
1584600278.138,59.082,30.273,30.762,163.574,33.203
1584600278.142,14.160,22.461,24.414,-1.465,43.945
1584600278.145,-14.648,17.090,26.855,-118.164,73.730
1584600278.149,22.949,24.414,31.738,29.297,33.691
1584600278.153,50.293,28.809,33.691,175.781,43.457
1584600278.157,17.578,19.043,30.762,61.035,41.992
1584600278.161,-10.254,17.578,24.414,-113.281,-0.488
1584600278.165,23.438,22.461,29.785,-30.762,39.062
1584600278.169,52.734,27.832,33.691,152.832,89.355
1584600278.173,27.344,28.809,29.785,108.887,16.602
1584600278.177,-10.254,21.484,27.344,-85.938,-18.555
1584600278.181,8.301,23.438,33.203,-79.590,15.137
1584600278.185,58.594,32.227,38.574,111.328,42.480
1584600278.188,56.152,32.227,33.691,141.113,2.930
1584600278.192,10.742,21.973,28.320,-39.062,-2.930
1584600278.196,-5.859,21.973,27.344,-111.328,18.555
1584600278.200,30.273,33.203,32.227,67.383,40.527
1584600278.204,49.316,32.715,40.039,182.617,6.348
1584600278.208,20.020,24.902,37.109,28.809,24.902
1584600278.212,-3.418,23.438,32.715,-122.070,88.867
1584600278.216,33.691,33.203,36.621,5.859,23.438
1584600278.220,61.523,36.621,37.598,165.039,-11.719
1584600278.224,31.250,27.832,35.156,71.289,20.508
1584600278.227,2.441,23.438,33.691,-111.816,12.207
1584600278.231,24.414,27.832,36.621,-50.293,29.785
1584600278.235,65.430,33.203,38.574,145.020,79.102
1584600278.239,53.223,27.832,36.621,125.488,45.410
1584600278.243,1.465,21.973,32.227,-67.383,47.852
1584600278.247,0.977,28.320,32.227,-78.613,28.320
1584600278.251,40.527,34.668,39.062,111.816,6.836
1584600278.255,49.805,28.809,37.598,156.738,45.898
1584600278.259,13.184,18.555,31.738,-22.949,50.781
1584600278.263,0.488,20.508,31.250,-112.793,24.902
1584600278.267,47.363,34.180,35.156,53.223,33.691
1584600278.270,72.266,35.156,38.086,170.410,76.660
1584600278.274,33.691,23.926,34.668,32.227,42.480
1584600278.278,-11.719,19.531,32.715,-109.863,0.000
1584600278.282,7.812,25.391,37.109,4.395,-3.418
1584600278.286,46.387,29.785,39.551,166.016,2.441
1584600278.290,31.738,26.367,33.691,89.844,0.488
1584600278.294,-2.441,20.020,31.738,-89.844,-21.484
1584600278.298,15.625,26.367,36.133,-48.828,-21.973
1584600278.302,52.734,37.598,38.086,134.277,3.906
1584600278.306,41.504,30.273,36.621,131.348,36.621
1584600278.310,-2.930,19.043,30.273,-62.500,4.883
1584600278.313,-2.930,22.461,31.250,-98.633,4.883
1584600278.317,45.898,31.738,37.109,91.309,35.156
1584600278.321,56.152,30.762,34.668,155.762,-18.555
1584600278.325,14.160,21.973,32.227,-14.648,-6.836
1584600278.329,-2.441,19.531,31.738,-119.629,0.977
1584600278.333,29.785,30.273,34.668,34.668,-52.246
1584600278.337,50.293,34.180,39.062,165.527,-10.742
1584600278.341,24.902,27.832,32.715,43.945,19.531
1584600278.345,-1.465,22.461,26.855,-114.258,-6.836
1584600278.349,20.996,25.391,32.715,-11.719,26.855
1584600278.352,40.527,29.297,36.621,166.992,16.113
1584600278.356,20.996,25.391,31.738,106.445,43.457
1584600278.360,-15.625,22.461,26.367,-86.914,42.969
1584600278.364,-0.977,26.855,30.273,-70.312,5.859
1584600278.368,50.293,31.250,36.133,125.000,36.621
1584600278.372,46.875,26.367,33.203,134.277,37.109
1584600278.376,7.812,19.043,26.367,-60.547,-13.184
1584600278.380,3.906,22.949,30.762,-107.422,16.113
1584600278.384,45.410,31.250,39.062,81.055,24.414
1584600278.388,57.617,32.715,37.598,166.016,41.504
1584600278.392,5.859,24.902,29.785,5.859,94.727
1584600278.395,-13.184,22.461,29.297,-120.117,40.527
1584600278.399,34.180,32.227,33.203,26.367,38.086
1584600278.403,60.059,31.738,32.227,168.945,79.590
1584600278.407,29.297,23.926,26.367,61.523,46.875
1584600278.411,-9.277,21.484,20.996,-111.328,17.090
1584600278.415,7.324,25.879,24.414,-39.062,25.391
1584600278.419,41.016,33.203,30.273,149.414,32.227
1584600278.423,25.391,32.715,26.855,104.004,32.715
1584600278.427,-9.766,30.273,22.461,-89.355,61.035
1584600278.431,9.766,33.691,26.367,-81.543,29.297
1584600278.435,55.664,37.109,33.203,120.117,-10.742
1584600278.438,51.270,31.250,32.227,152.344,54.199
1584600278.442,11.719,23.926,24.902,-35.156,20.020
1584600278.446,1.953,25.879,25.879,-104.980,-11.230
1584600278.450,43.945,31.250,29.297,69.824,33.203
1584600278.454,66.406,32.227,30.762,174.316,8.789
1584600278.458,24.902,23.926,32.715,35.156,16.113
1584600278.462,-3.418,19.043,32.715,-104.980,85.938
1584600278.466,29.297,26.855,38.086,16.602,126.953
1584600278.470,56.641,31.738,40.039,165.039,76.660
1584600278.474,30.273,26.855,30.762,68.359,28.809
1584600278.477,-12.207,17.578,28.320,-100.098,27.344
1584600278.481,2.441,20.508,31.250,-38.574,57.617
1584600278.485,38.574,30.762,32.227,143.555,19.531
1584600278.489,28.809,28.320,29.297,114.258,-6.836
1584600278.493,-9.766,22.461,25.879,-81.543,55.176
1584600278.497,-1.953,27.832,30.762,-93.262,15.625
1584600278.501,46.387,33.691,38.086,108.398,-49.316
1584600278.505,44.434,32.227,35.645,155.762,-27.344
1584600278.509,0.000,23.438,30.273,-28.809,-18.555
1584600278.513,-4.395,23.438,29.297,-118.652,-32.227
1584600278.517,45.410,34.180,31.738,49.805,-9.277
1584600278.520,66.895,31.738,33.691,169.434,26.367
1584600278.524,23.438,22.461,29.297,32.715,-0.488
1584600278.528,-11.230,21.484,26.367,-114.258,4.395
1584600278.532,26.367,29.297,31.250,-2.441,11.719
1584600278.536,57.617,30.762,33.203,164.551,11.230
1584600278.540,22.461,25.391,27.832,92.285,60.059
1584600278.544,-16.113,21.484,23.926,-92.773,42.969
1584600278.548,7.324,26.855,25.879,-59.082,43.945
1584600278.552,54.199,35.645,33.691,133.789,16.602
1584600278.556,41.016,30.762,33.203,124.512,21.973
1584600278.560,-8.301,18.066,26.855,-75.684,28.809
1584600278.563,-3.906,23.926,30.273,-106.445,33.691
1584600278.567,42.480,33.691,34.180,86.914,82.031
1584600278.571,55.664,31.738,32.715,154.297,40.527
1584600278.575,4.883,23.926,28.809,-10.742,72.266
1584600278.579,-19.531,22.461,29.785,-112.305,38.086
1584600278.583,32.227,28.320,37.109,38.574,9.766
1584600278.587,68.359,31.250,37.598,173.340,74.707
1584600278.591,41.016,26.367,30.273,44.922,67.383
1584600278.595,-1.465,22.949,25.879,-123.535,15.137
1584600278.599,13.184,28.320,32.227,-13.672,21.973
1584600278.602,46.875,29.785,35.156,160.645,43.457
1584600278.606,26.367,28.320,33.691,93.750,10.742
1584600278.610,-11.719,22.949,30.762,-89.844,28.809
1584600278.614,9.277,24.414,30.762,-69.336,20.996
1584600278.618,57.617,35.645,38.086,126.465,59.082
1584600278.622,56.152,37.109,38.574,143.555,36.133
1584600278.626,9.277,27.344,33.203,-46.387,1.953
1584600278.630,-5.371,26.367,32.227,-97.656,5.371
1584600278.634,37.109,33.691,36.621,83.008,24.414
1584600278.638,54.199,30.762,37.109,165.527,28.320
1584600278.642,14.160,22.949,33.203,19.043,42.969
1584600278.645,-2.441,23.926,31.250,-107.422,34.668
1584600278.649,35.645,35.156,30.762,14.648,45.898
1584600278.653,62.988,39.062,32.227,158.691,46.387
1584600278.657,34.180,35.645,30.273,54.688,3.418
1584600278.661,-1.953,30.762,27.344,-113.770,21.484
1584600278.665,8.789,26.367,35.645,-33.691,34.668
1584600278.669,33.691,30.762,35.645,153.809,41.992
1584600278.673,24.902,28.809,30.273,124.023,68.848
1584600278.677,-7.324,22.949,30.762,-69.824,30.762
1584600278.681,2.441,25.879,28.320,-78.613,20.508
1584600278.685,48.828,29.785,32.227,119.629,61.035
1584600278.688,52.246,29.297,34.180,153.809,2.441
1584600278.692,15.137,24.902,27.344,-35.156,-36.133
1584600278.696,12.207,27.832,24.414,-107.422,-45.410
1584600278.700,44.434,34.668,31.250,66.406,9.766
1584600278.704,58.105,32.227,31.250,164.551,28.809
1584600278.708,19.531,23.926,24.414,11.230,3.906
1584600278.712,-19.043,20.020,25.391,-119.629,44.434
1584600278.716,9.766,27.344,30.762,11.230,-4.883
1584600278.720,38.574,30.273,30.762,162.109,10.742
1584600278.724,11.719,20.508,28.320,70.801,73.242
1584600278.727,-13.184,16.113,23.926,-114.746,52.246
1584600278.731,4.395,22.461,24.414,-56.152,51.758
1584600278.735,39.062,26.855,26.855,139.160,47.363
1584600278.739,30.273,24.902,25.879,118.164,19.043
1584600278.743,-14.160,20.020,24.902,-75.684,41.992
1584600278.747,-12.207,22.949,28.320,-95.215,43.945
1584600278.751,28.809,30.273,32.715,95.215,1.953
1584600278.755,40.527,28.809,33.691,146.484,3.906
1584600278.759,7.324,20.996,28.320,-29.785,-29.297
1584600278.763,-6.348,21.484,25.391,-117.676,-34.668
1584600278.767,31.250,29.785,31.250,53.711,0.977
1584600278.770,51.270,30.762,33.691,168.457,13.184
1584600278.774,16.602,22.461,30.762,29.785,58.105
1584600278.778,-7.324,19.531,29.297,-114.746,73.242
1584600278.782,27.344,24.902,30.762,-1.465,44.922
1584600278.786,52.734,30.273,32.715,167.969,-22.461
1584600278.790,26.855,21.973,33.691,98.145,11.719
1584600278.794,-3.906,9.277,30.273,-79.102,51.758
1584600278.798,26.855,17.090,31.738,-34.668,31.738
1584600278.802,73.242,33.203,32.227,152.344,9.277
1584600278.806,49.805,33.691,27.344,142.090,-2.441
1584600278.810,1.953,25.391,22.461,-47.852,31.738
1584600278.813,11.719,28.320,18.066,-94.238,28.320
1584600278.817,64.941,36.621,20.508,81.543,14.160
1584600278.821,62.500,34.180,22.949,149.902,34.180
1584600278.825,3.418,26.855,21.973,-12.695,24.414
1584600278.829,-13.672,23.926,25.391,-111.816,-18.555
1584600278.833,35.645,31.738,31.250,43.457,-2.930
1584600278.837,63.965,37.109,29.297,169.922,3.418
1584600278.841,21.973,26.855,23.438,30.762,31.250
1584600278.845,-18.555,21.484,23.926,-130.859,43.457
1584600278.849,13.672,32.227,28.320,-24.414,0.000
1584600278.852,64.453,36.621,34.180,156.738,54.688
1584600278.856,40.039,29.297,35.156,103.516,56.152
1584600278.860,-16.602,19.531,27.832,-87.891,53.223
1584600278.864,-1.465,22.949,23.926,-68.359,69.336
1584600278.868,47.852,29.785,27.344,128.418,49.316
1584600278.872,47.363,26.367,27.832,139.648,71.289
1584600278.876,1.953,20.508,26.855,-48.828,48.828
1584600278.880,1.953,24.414,26.855,-100.586,39.551
1584600278.884,55.176,33.691,30.762,79.590,38.574
1584600278.888,55.664,32.227,30.273,162.109,8.789
1584600278.892,1.465,21.973,27.832,0.000,41.992
1584600278.895,-15.137,20.996,29.297,-118.652,54.688
1584600278.899,27.832,27.832,29.785,23.438,28.320
1584600278.903,59.082,29.785,30.273,162.109,31.250
1584600278.907,31.250,23.438,29.297,52.734,48.828
1584600278.911,-4.883,14.648,25.391,-118.164,50.293
1584600278.915,15.625,19.531,26.855,-35.645,26.855
1584600278.919,49.316,25.879,30.762,150.391,31.738
1584600278.923,28.809,24.902,27.832,109.375,41.992
1584600278.927,-19.043,20.020,25.879,-83.496,-12.695
1584600278.931,-7.324,18.066,27.832,-77.637,49.316
1584600278.935,40.527,24.414,31.738,116.699,109.863
1584600278.938,40.039,24.902,27.832,143.555,16.113
1584600278.942,2.441,18.066,18.066,-40.527,-13.184
1584600278.946,-5.371,18.555,18.555,-110.352,12.207
1584600278.950,39.551,26.855,25.879,68.359,19.531
1584600278.954,56.152,27.344,25.391,174.805,-0.977
1584600278.958,13.184,19.043,22.949,19.531,9.766
1584600278.962,-13.184,17.578,21.973,-120.117,45.410
1584600278.966,25.391,27.832,26.855,9.766,-2.441
1584600278.970,50.781,30.762,28.320,166.992,-48.340
1584600278.974,8.789,21.484,20.508,71.777,26.367
1584600278.977,-25.879,14.648,20.508,-104.004,22.949
1584600278.981,7.812,19.531,26.367,-43.457,-36.133
1584600278.985,50.781,26.367,28.320,145.996,31.250
1584600278.989,46.387,22.949,23.926,126.465,55.664
1584600278.993,7.812,17.090,21.484,-71.289,7.324
1584600278.997,9.277,20.996,24.414,-86.914,16.602
1584600279.001,54.199,25.879,29.785,111.816,59.082
1584600279.005,50.781,20.996,29.297,161.621,79.102
1584600279.009,7.324,16.602,24.414,-22.461,78.125
1584600279.013,-2.930,20.020,25.391,-107.422,68.359
1584600279.017,35.645,28.320,28.320,54.199,17.578
1584600279.020,53.223,28.809,27.344,163.086,21.484
1584600279.024,23.438,21.973,24.902,29.297,54.688
1584600279.028,-4.883,16.602,28.809,-115.723,42.969
1584600279.032,24.414,22.949,31.738,3.418,64.453
1584600279.036,60.059,30.762,31.250,167.480,53.223
1584600279.040,39.551,28.320,27.344,87.402,56.152
1584600279.044,6.836,22.461,27.344,-93.750,30.273
1584600279.048,20.508,26.367,33.691,-51.270,34.180
1584600279.052,47.852,34.180,35.156,141.113,41.992
1584600279.056,35.156,29.297,37.109,134.766,27.832
1584600279.060,-9.277,18.555,31.250,-55.176,70.801
1584600279.063,-4.395,19.043,26.367,-86.914,44.922
1584600279.067,49.805,28.320,30.273,91.309,-20.996
1584600279.071,64.453,33.203,31.738,151.855,21.484
1584600279.075,14.648,25.879,28.320,-9.766,37.109
1584600279.079,-15.137,21.484,25.879,-112.793,6.836
1584600279.083,30.273,29.297,30.273,37.109,31.738
1584600279.087,61.523,34.180,36.133,169.434,30.273
1584600279.091,28.320,29.297,32.715,51.270,14.160
1584600279.095,-2.930,23.926,29.785,-107.422,2.930
1584600279.099,27.344,25.879,34.668,-10.742,34.180
1584600279.102,64.941,34.668,38.574,169.434,49.805
1584600279.106,43.945,26.855,36.133,111.816,34.180
1584600279.110,-1.953,11.719,31.250,-83.496,7.812
1584600279.114,12.695,14.160,34.668,-57.129,-11.719
1584600279.118,60.059,23.926,40.039,140.625,-10.254
1584600279.122,55.176,29.297,34.668,146.973,29.297
1584600279.126,9.277,25.879,24.902,-48.340,86.426
1584600279.130,-5.859,25.391,28.320,-110.352,57.129
1584600279.134,29.785,34.180,32.227,67.871,7.324
1584600279.138,39.551,35.645,28.320,149.902,25.879
1584600279.142,-0.488,29.785,27.832,-7.324,-13.184
1584600279.145,-15.625,29.785,26.367,-122.070,-38.574
1584600279.149,23.438,37.109,25.879,14.648,0.977
1584600279.153,52.246,38.574,24.902,160.156,47.363
1584600279.157,22.461,31.250,20.996,50.781,72.754
1584600279.161,-13.672,26.367,19.531,-118.652,34.668
1584600279.165,13.184,32.715,25.879,-37.109,13.672
1584600279.169,50.781,38.574,30.273,148.926,71.777
1584600279.173,34.668,31.250,28.320,104.004,59.082
1584600279.177,-8.301,26.367,26.855,-88.379,25.391
1584600279.181,1.465,31.738,28.809,-80.566,28.320
1584600279.185,52.246,39.062,28.809,115.234,21.973
1584600279.188,53.711,36.621,27.344,139.648,4.883
1584600279.192,7.324,30.273,25.391,-49.805,33.691
1584600279.196,-11.719,30.762,26.855,-111.328,6.348
1584600279.200,24.414,37.109,32.227,67.383,23.926
1584600279.204,41.016,38.086,31.738,165.527,75.195
1584600279.208,6.348,30.273,26.855,20.020,5.371
1584600279.212,-8.301,30.762,24.414,-111.816,-5.371
1584600279.216,31.738,40.527,30.273,9.766,-8.789
1584600279.220,53.711,41.992,34.180,161.133,18.555
1584600279.224,24.902,35.156,26.855,70.801,65.430
1584600279.227,-5.859,28.320,21.484,-107.422,24.414
1584600279.231,16.113,33.691,25.879,-49.805,-2.930
1584600279.235,53.223,39.551,30.762,143.066,-10.254
1584600279.239,42.480,34.180,28.809,125.488,-8.789
1584600279.243,3.906,27.344,27.832,-71.777,-22.461
1584600279.247,14.160,29.297,29.297,-87.402,-41.992
1584600279.251,59.082,35.156,36.621,109.375,22.461
1584600279.255,61.523,37.598,35.645,158.691,79.590
1584600279.259,14.160,30.762,27.832,-18.555,26.367
1584600279.263,-5.859,23.438,28.320,-106.934,42.480
1584600279.267,37.109,28.320,33.203,56.152,-12.207
1584600279.270,58.594,32.227,39.551,187.988,26.855
1584600279.274,32.227,26.367,35.156,57.617,131.348
1584600279.278,9.277,30.273,21.484,-97.656,49.805
1584600279.282,39.551,41.504,23.438,4.883,-9.277
1584600279.286,67.871,44.922,29.297,160.645,0.488
1584600279.290,31.738,36.133,24.414,83.496,59.082
1584600279.294,-20.020,24.414,19.043,-107.910,40.039
1584600279.298,3.418,32.227,20.020,-65.918,4.395
1584600279.302,53.711,43.457,23.438,126.953,7.812
1584600279.306,50.293,39.062,23.926,116.211,40.039
1584600279.310,-1.953,27.832,18.555,-81.543,56.641
1584600279.313,-6.836,29.297,17.578,-111.816,42.480
1584600279.317,35.645,37.109,22.949,88.379,63.477
1584600279.321,41.992,36.133,21.973,155.273,42.969
1584600279.325,4.883,29.785,20.020,-12.207,40.527
1584600279.329,-16.113,29.297,20.020,-117.676,37.109
1584600279.333,30.273,34.668,29.785,38.574,-5.371
1584600279.337,52.734,36.621,37.109,170.410,-2.930
1584600279.341,17.090,29.785,29.297,39.551,15.137
1584600279.345,-6.348,21.484,25.879,-119.629,33.691
1584600279.349,26.367,26.855,29.297,-18.555,-5.859
1584600279.352,61.035,34.180,31.250,156.250,8.789
1584600279.356,32.227,28.320,31.738,98.633,-26.855
1584600279.360,-16.113,20.996,27.344,-85.449,-13.672
1584600279.364,0.488,23.926,27.344,-62.012,17.090
1584600279.368,45.898,31.250,31.738,132.812,-18.066
1584600279.372,38.086,32.227,28.809,139.160,25.391
1584600279.376,-4.395,22.949,24.414,-50.293,28.320
1584600279.380,-8.789,20.996,28.809,-99.121,12.207
1584600279.384,34.180,28.809,33.203,85.449,82.031
1584600279.388,55.176,28.809,33.203,169.922,81.055
1584600279.392,13.672,18.555,24.902,3.906,53.711
1584600279.395,-17.578,16.113,20.020,-119.141,38.574
1584600279.399,20.996,27.344,25.391,27.832,23.438
1584600279.403,58.105,33.203,28.320,171.387,30.762
1584600279.407,33.691,28.320,22.461,64.941,35.156
1584600279.411,3.418,24.902,19.043,-110.352,33.203
1584600279.415,31.738,35.156,20.996,-36.133,9.277
1584600279.419,63.965,44.434,21.973,155.762,-24.902
1584600279.423,34.180,34.668,22.461,112.305,8.301
1584600279.427,-12.207,22.949,19.531,-80.566,29.785
1584600279.431,1.465,28.809,20.996,-69.824,56.641
1584600279.435,54.688,38.086,23.926,125.488,59.570
1584600279.438,54.688,33.691,25.391,149.902,20.996
1584600279.442,4.883,20.996,24.414,-39.551,12.207
1584600279.446,-6.836,22.949,21.973,-114.258,8.301
1584600279.450,41.016,32.715,24.902,65.918,58.105
1584600279.454,57.617,33.691,24.414,166.992,20.020
1584600279.458,12.695,25.391,23.438,11.230,-27.344
1584600279.462,-15.137,20.996,23.438,-124.512,-4.395
1584600279.466,23.926,29.297,22.949,6.836,30.762
1584600279.470,61.035,29.785,24.902,164.551,47.363
1584600279.474,34.180,22.949,25.391,72.754,23.438
1584600279.477,-10.254,20.996,25.879,-101.074,0.488
1584600279.481,10.742,28.320,29.785,-38.086,60.547
1584600279.485,52.734,34.180,33.691,148.926,82.520
1584600279.489,47.363,30.762,33.203,124.512,47.852
1584600279.493,4.883,23.926,29.785,-67.383,17.578
1584600279.497,0.488,26.367,31.738,-72.754,-7.812
1584600279.501,43.457,33.203,34.180,116.699,12.695
1584600279.505,47.363,31.250,33.203,151.855,-15.137
1584600279.509,8.789,24.902,25.391,-24.414,11.719
1584600279.513,-10.254,21.973,20.508,-108.398,44.434
1584600279.517,22.461,27.344,26.367,59.082,5.371
1584600279.520,43.945,28.809,28.320,172.852,0.000
1584600279.524,15.625,26.367,26.855,36.133,75.195
1584600279.528,-7.812,23.926,26.367,-107.910,62.988
1584600279.532,26.855,30.762,27.344,2.930,2.441
1584600279.536,59.082,32.715,29.297,168.457,9.766
1584600279.540,40.527,28.809,24.414,91.309,45.410
1584600279.544,1.953,29.297,17.090,-101.074,45.410
1584600279.548,9.766,29.297,20.508,-68.359,10.254
1584600279.552,54.199,35.156,27.832,119.141,19.043
1584600279.556,48.828,33.691,24.902,122.559,48.340
1584600279.560,-8.789,23.926,14.160,-65.430,73.730
1584600279.563,-24.414,22.949,15.625,-93.262,58.105
1584600279.567,26.855,31.738,25.879,102.051,8.789
1584600279.571,50.781,30.762,25.879,168.457,-10.742
1584600279.575,15.137,22.949,19.043,-6.348,41.504
1584600279.579,-1.465,24.414,17.578,-113.281,48.340
1584600279.583,34.180,32.227,22.949,38.086,-18.555
1584600279.587,60.059,34.180,26.367,165.039,29.297
1584600279.591,25.879,25.879,23.438,39.551,30.762
1584600279.595,-10.742,21.484,20.996,-123.535,-15.625
1584600279.599,16.113,30.273,23.926,-22.949,11.230
1584600279.602,53.711,32.227,24.414,160.156,40.039
1584600279.606,45.410,25.391,20.996,100.098,17.090
1584600279.610,7.324,20.020,19.043,-88.867,14.160
1584600279.614,10.254,23.926,22.461,-65.430,54.199
1584600279.618,42.480,35.645,27.832,135.742,26.367
1584600279.622,43.945,31.738,23.438,146.973,-15.137
1584600279.626,2.441,17.090,19.043,-57.129,49.316
1584600279.630,-3.418,19.043,22.949,-106.934,84.961
1584600279.634,39.062,28.809,25.391,80.078,58.594
1584600279.638,45.898,29.785,23.438,158.691,24.414
1584600279.642,5.371,23.926,20.996,-4.883,18.555
1584600279.645,-14.648,16.602,21.484,-120.117,35.156
1584600279.649,22.949,21.484,22.949,22.949,-2.930
1584600279.653,56.152,29.785,21.973,163.574,13.672
1584600279.657,26.855,22.949,20.020,56.152,71.777
1584600279.661,-9.766,15.625,15.625,-117.188,50.293
1584600279.665,13.184,24.414,18.066,-42.969,66.406
1584600279.669,46.875,31.250,20.996,137.207,67.383
1584600279.673,32.715,20.996,21.973,104.980,13.672
1584600279.677,-5.859,13.184,19.531,-86.426,1.953
1584600279.681,6.348,22.461,21.484,-90.820,20.508
1584600279.685,64.453,28.809,29.785,105.469,37.598
1584600279.688,41.504,23.438,30.762,143.066,29.785
1584600279.692,-23.438,17.578,24.902,-38.574,3.906
1584600279.696,-17.090,17.578,24.414,-113.281,36.621
1584600279.700,32.715,23.438,28.320,62.012,24.414
1584600279.704,34.668,27.832,27.832,160.156,2.930
1584600279.708,-6.836,21.973,23.438,10.742,15.137
1584600279.712,-15.137,19.043,19.531,-126.465,19.043
1584600279.716,25.879,26.855,21.973,5.859,15.625
1584600279.720,52.246,31.250,26.855,163.086,6.836
1584600279.724,25.879,24.414,24.902,59.082,24.902
1584600279.727,-13.184,17.090,20.020,-116.699,37.109
1584600279.731,5.371,26.367,22.461,-48.828,72.754
1584600279.735,42.969,35.156,26.855,143.555,70.312
1584600279.739,27.832,27.832,28.320,118.652,36.133
1584600279.743,-11.230,17.578,26.855,-74.707,47.852
1584600279.747,2.441,23.438,26.367,-83.008,71.289
1584600279.751,51.270,32.715,29.785,109.375,26.855
1584600279.755,55.176,28.320,30.762,150.391,21.973
1584600279.759,5.859,18.555,27.832,-29.785,58.105
1584600279.763,-14.160,20.508,25.391,-113.281,17.578
1584600279.767,26.367,26.855,31.250,61.523,-9.766
1584600279.770,43.457,25.391,31.738,176.758,29.297
1584600279.774,15.137,20.020,26.855,29.297,51.270
1584600279.778,-8.789,19.043,27.832,-114.258,19.043
1584600279.782,21.973,25.391,29.297,-0.977,24.902
1584600279.786,53.223,25.879,30.273,154.785,15.137
1584600279.790,22.461,18.555,30.273,78.613,36.133
1584600279.794,-14.648,18.555,26.367,-104.004,42.969
1584600279.798,5.371,23.926,23.926,-61.035,-4.395
1584600279.802,51.758,27.832,27.344,130.371,69.336
1584600279.806,56.641,26.367,25.391,123.535,72.754
1584600279.810,7.324,20.996,21.484,-67.383,17.578
1584600279.813,-11.719,20.508,24.902,-104.980,38.086
1584600279.817,27.344,26.367,31.250,88.379,-1.465
1584600279.821,42.480,28.320,33.203,159.668,-1.465
1584600279.825,10.742,22.461,29.785,-12.695,43.945
1584600279.829,-5.859,20.020,26.855,-115.234,27.832
1584600279.833,28.320,25.879,29.297,34.180,-5.371
1584600279.837,53.711,29.297,31.250,160.645,46.875
1584600279.841,25.879,23.438,28.320,45.410,67.871
1584600279.845,-7.324,20.508,23.926,-110.840,64.941
1584600279.849,20.508,26.367,25.391,-13.672,65.430
1584600279.852,60.547,30.762,29.297,158.203,80.078
1584600279.856,37.109,26.367,30.273,101.074,34.668
1584600279.860,-11.719,18.066,29.297,-89.844,-34.180
1584600279.864,-0.488,22.461,25.391,-71.777,12.207
1584600279.868,42.969,30.273,30.273,128.418,98.633
1584600279.872,40.527,26.367,31.738,140.625,95.215
1584600279.876,-4.395,20.996,23.926,-52.246,61.035
1584600279.880,-4.395,25.879,21.973,-108.887,17.578
1584600279.884,55.176,34.180,31.250,75.195,9.766
1584600279.888,62.500,30.762,32.715,166.016,48.828
1584600279.892,8.789,22.461,25.879,9.766,41.992
1584600279.895,-9.277,26.367,22.949,-111.328,4.883
1584600279.899,26.367,35.645,28.320,33.203,18.555
1584600279.903,51.270,34.668,32.715,175.781,33.203
1584600279.907,22.949,24.902,29.297,66.406,25.879
1584600279.911,-5.859,17.090,27.344,-99.609,-6.348
1584600279.915,24.414,26.367,29.785,-22.461,-19.531
1584600279.919,62.012,33.691,29.297,157.227,-4.883
1584600279.923,33.203,29.785,21.973,103.516,20.020
1584600279.927,-18.555,25.879,18.066,-94.727,43.945
1584600279.931,-7.324,28.809,21.973,-83.984,35.156
1584600279.935,38.574,38.086,22.461,114.258,39.062
1584600279.938,43.457,40.039,17.090,140.137,69.336
1584600279.942,-1.465,31.250,15.137,-48.340,34.668
1584600279.946,-9.277,25.391,18.066,-115.723,37.598
1584600279.950,31.250,27.832,25.879,59.082,49.805
1584600279.954,40.527,31.250,26.367,168.457,-0.977
1584600279.958,8.301,24.414,21.484,21.484,-17.578
1584600279.962,-7.812,19.531,23.926,-125.000,26.367
1584600279.966,31.738,28.320,26.367,3.418,45.410
1584600279.970,60.547,35.156,26.855,159.668,15.137
1584600279.974,28.809,28.809,22.949,68.848,2.930
1584600279.977,-4.883,20.996,19.043,-113.281,-21.973
1584600279.981,24.902,24.902,24.902,-50.781,-21.973
1584600279.985,62.988,34.180,31.738,145.020,21.973
1584600279.989,40.039,32.227,28.320,119.629,13.184
1584600279.993,-10.742,22.461,19.043,-74.707,-14.648
1584600279.997,-2.930,25.879,18.555,-87.402,43.945
1584600280.001,46.387,37.109,25.391,109.863,61.035
1584600280.005,49.805,35.156,26.855,155.762,-11.719
1584600280.009,7.812,25.391,25.879,-23.926,11.230
1584600280.013,0.000,24.902,24.414,-116.211,50.781
1584600280.017,39.551,36.621,25.391,47.852,44.922
1584600280.020,50.293,41.504,25.391,167.480,77.148
1584600280.024,9.277,30.273,21.973,27.832,48.828
1584600280.028,-20.508,21.973,21.973,-117.188,-4.395
1584600280.032,19.531,31.738,22.949,-8.301,-9.766
1584600280.036,51.758,34.668,25.391,154.785,19.043
1584600280.040,23.926,24.414,26.855,84.473,48.828
1584600280.044,-16.113,20.020,24.414,-97.656,0.977
1584600280.048,0.977,26.367,21.973,-57.129,-35.645
1584600280.052,40.039,36.621,22.949,141.113,-14.160
1584600280.056,34.668,34.180,23.926,131.836,-34.180
1584600280.060,0.000,21.484,20.508,-73.242,-17.578
1584600280.063,1.953,24.414,19.531,-103.027,33.691
1584600280.067,44.922,31.738,26.855,95.215,14.648
1584600280.071,48.340,30.273,29.297,162.109,-7.812
1584600280.075,7.324,24.414,21.484,-11.719,2.930
1584600280.079,-7.324,23.926,20.996,-115.234,-12.695
1584600280.083,37.109,31.250,28.809,45.410,-6.836
1584600280.087,62.012,31.250,28.809,173.340,25.391
1584600280.091,25.391,24.902,24.902,46.387,13.184
1584600280.095,3.418,20.508,25.879,-100.098,28.320
1584600280.099,41.016,28.320,27.344,-4.395,62.012
1584600280.102,79.590,37.598,23.926,159.180,33.203
1584600280.106,51.270,31.250,20.996,99.121,16.113
1584600280.110,3.418,23.438,18.555,-88.379,-2.930
1584600280.114,16.602,27.832,21.973,-57.129,16.602
1584600280.118,53.711,32.715,26.855,137.207,93.262
1584600280.122,47.363,29.785,25.391,146.973,72.266
1584600280.126,5.371,24.414,25.391,-41.504,22.461
1584600280.130,-1.465,24.414,30.273,-100.586,15.137
1584600280.134,38.574,28.320,36.133,83.008,38.086
1584600280.138,57.129,31.250,36.133,167.480,60.547
1584600280.142,22.461,26.367,30.273,7.812,29.297
1584600280.145,-0.488,22.461,26.367,-113.281,49.805
1584600280.149,30.762,32.227,27.344,29.297,52.734
1584600280.153,47.363,32.715,27.832,175.781,1.953
1584600280.157,16.602,20.020,22.949,57.129,1.953
1584600280.161,-8.789,19.043,18.066,-118.164,12.695
1584600280.165,19.531,27.832,22.461,-32.715,0.488
1584600280.169,61.523,31.250,27.832,156.738,-5.371
1584600280.173,53.223,23.438,27.344,111.328,35.645
1584600280.177,15.137,17.578,22.949,-87.891,26.855
1584600280.181,9.766,21.484,22.461,-79.102,30.762
1584600280.185,42.969,29.297,26.367,122.070,25.879
1584600280.188,47.852,28.320,22.461,153.809,-1.953
1584600280.192,6.836,18.066,19.043,-34.180,39.551
1584600280.196,-6.348,15.625,19.531,-114.746,10.254
1584600280.200,37.109,25.879,23.926,63.477,-16.113
1584600280.204,53.223,29.297,26.855,167.969,22.461
1584600280.208,17.090,21.484,21.484,12.695,65.918
1584600280.212,1.465,19.531,21.484,-125.977,58.105
1584600280.216,27.832,26.855,27.344,6.348,10.742
1584600280.220,50.293,28.809,28.809,165.039,30.762
1584600280.224,33.691,22.949,28.320,72.266,48.340
1584600280.227,-7.812,17.090,30.762,-101.562,24.902
1584600280.231,6.836,24.414,31.250,-33.203,36.133
1584600280.235,51.758,29.297,29.785,160.156,55.664
1584600280.239,46.875,22.461,29.297,132.812,48.828
1584600280.243,3.906,15.625,23.926,-73.242,-9.766
1584600280.247,3.906,17.578,23.438,-91.309,-32.227
1584600280.251,44.922,23.926,29.785,106.934,54.199
1584600280.255,37.598,23.926,32.715,154.785,78.125
1584600280.259,-3.906,20.996,32.227,-16.602,27.344
1584600280.263,-8.789,20.020,29.297,-99.609,39.062
1584600280.267,36.133,22.949,30.273,61.035,49.316
1584600280.270,59.570,25.391,31.250,174.805,35.645
1584600280.274,20.996,20.508,27.832,35.645,69.824
1584600280.278,-15.137,17.578,24.902,-113.770,66.406
1584600280.282,24.414,26.855,29.297,0.488,40.527
1584600280.286,64.941,28.809,34.180,166.016,40.527
1584600280.290,29.297,20.020,33.691,90.820,21.973
1584600280.294,-10.254,16.602,31.250,-91.309,9.277
1584600280.298,7.324,22.461,30.273,-52.734,37.109
1584600280.302,50.781,31.250,32.227,136.230,32.227
1584600280.306,51.758,28.320,30.273,130.859,37.109
1584600280.310,14.160,18.555,24.414,-59.570,4.883
1584600280.313,18.066,19.531,25.391,-89.844,24.414
1584600280.317,61.035,28.809,30.762,100.586,41.504
1584600280.321,60.059,29.297,30.273,162.109,-28.320
1584600280.325,3.906,19.043,24.902,-12.695,-26.855
1584600280.329,-19.043,18.066,21.973,-118.652,17.578
1584600280.333,26.855,25.879,25.879,38.086,69.336
1584600280.337,46.387,27.832,27.832,168.945,60.059
1584600280.341,16.602,22.461,22.461,40.527,39.551
1584600280.345,-8.789,17.090,22.461,-120.117,-1.953
1584600280.349,11.719,20.996,28.809,-20.996,-10.254
1584600280.352,47.852,25.879,30.273,154.785,53.223
1584600280.356,33.691,21.973,30.762,99.121,49.805
1584600280.360,0.000,19.043,28.320,-90.332,7.812
1584600280.364,14.648,26.855,28.320,-68.848,19.043
1584600280.368,49.316,29.785,32.715,125.000,70.801
1584600280.372,40.527,27.832,29.785,134.766,24.902
1584600280.376,-0.488,27.344,20.996,-57.129,-32.227
1584600280.380,1.465,26.855,20.996,-111.328,3.906
1584600280.384,46.875,26.367,28.320,72.754,27.344
1584600280.388,49.805,25.879,29.785,159.180,71.777
1584600280.392,-4.883,19.531,26.855,4.395,49.316
1584600280.395,-24.414,12.695,27.832,-106.445,40.039
1584600280.399,27.832,16.113,37.109,45.898,83.008
1584600280.403,58.594,23.926,36.133,178.711,26.855
1584600280.407,20.996,27.832,21.973,51.758,-37.598
1584600280.411,-22.949,25.391,16.602,-118.164,-8.789
1584600280.415,-1.465,26.855,23.438,-35.645,-10.254
1584600280.419,43.457,32.227,28.320,142.578,-61.523
1584600280.423,28.320,29.297,24.414,97.656,37.109
1584600280.427,-17.578,21.973,20.508,-90.332,31.250
1584600280.431,-5.859,25.879,23.926,-92.773,-15.625
1584600280.435,53.711,32.715,29.785,91.309,20.508
1584600280.438,58.105,33.691,29.785,126.465,-7.324
1584600280.442,-12.695,24.414,26.855,-47.363,17.090
1584600280.446,-26.367,20.508,28.320,-111.328,12.695
1584600280.450,34.180,29.297,32.715,61.035,48.340
1584600280.454,44.434,34.180,36.621,162.598,95.703
1584600280.458,-1.465,29.785,33.203,8.789,59.082
1584600280.462,-24.414,23.438,26.367,-135.254,75.195
1584600280.466,10.742,27.832,29.297,0.977,47.852
1584600280.470,46.875,29.785,35.156,160.645,20.020
1584600280.474,21.973,24.414,32.227,65.430,20.508
1584600280.477,-8.789,24.414,27.832,-120.605,28.320
1584600280.481,6.836,31.738,31.738,-61.523,21.484
1584600280.485,38.086,36.621,37.109,132.812,35.156
1584600280.489,25.391,28.809,31.738,103.027,42.480
1584600280.493,-13.184,20.020,25.879,-90.820,7.324
1584600280.497,2.930,27.344,28.320,-95.703,13.184
1584600280.501,44.434,37.109,34.180,94.238,40.527
1584600280.505,35.645,30.273,35.156,146.484,27.832
1584600280.509,-4.395,21.484,31.250,-27.344,0.000
1584600280.513,-10.254,23.926,29.785,-130.859,1.953
1584600280.517,34.668,32.715,32.227,36.133,15.137
1584600280.520,42.969,34.180,34.180,156.738,14.160
1584600280.524,-2.930,23.438,27.832,14.648,53.711
1584600280.528,-19.043,17.578,26.855,-126.465,93.750
1584600280.532,15.625,22.461,35.156,-6.348,70.312
1584600280.536,45.898,26.855,38.574,163.086,33.691
1584600280.540,29.785,25.879,34.668,82.520,29.297
1584600280.544,-11.230,22.949,31.738,-105.469,8.789
1584600280.548,-0.488,26.367,35.645,-57.617,10.254
1584600280.552,41.016,33.691,36.133,137.695,40.039
1584600280.556,30.273,26.855,35.645,124.512,-2.441
1584600280.560,-7.812,15.625,33.691,-59.082,-21.973
1584600280.563,4.883,19.043,35.645,-83.008,18.555
1584600280.567,41.992,26.855,36.133,86.426,-13.184
1584600280.571,38.574,26.855,33.203,145.996,-19.531
1584600280.575,-10.742,19.043,31.250,-17.090,30.273
1584600280.579,-32.227,18.066,33.203,-116.211,27.344
1584600280.583,18.066,26.367,36.133,38.086,77.148
1584600280.587,48.828,28.320,37.109,161.621,89.355
1584600280.591,19.043,25.391,33.691,42.969,24.902
1584600280.595,-17.090,21.484,31.738,-105.957,-0.977
1584600280.599,11.719,26.367,34.668,-10.742,-3.418
1584600280.602,49.805,30.762,34.668,161.621,18.555
1584600280.606,33.691,28.809,28.809,100.586,41.992
1584600280.610,-9.277,20.996,24.414,-92.285,53.711
1584600280.614,-2.441,20.996,28.809,-66.406,15.625
1584600280.618,54.688,28.320,35.156,128.418,7.812
1584600280.622,52.246,29.785,35.156,135.254,17.578
1584600280.626,1.465,20.996,27.832,-55.176,2.930
1584600280.630,-0.977,20.508,25.879,-109.375,44.922
1584600280.634,44.922,31.250,32.715,76.660,28.809
1584600280.638,51.270,27.344,33.691,167.480,5.859
1584600280.642,1.465,18.066,30.762,9.766,72.266
1584600280.645,-19.531,18.555,29.297,-116.699,95.215
1584600280.649,21.973,28.320,31.738,24.414,44.922
1584600280.653,53.711,31.738,34.668,168.945,52.734
1584600280.657,29.785,24.414,30.273,53.223,93.750
1584600280.661,-8.301,17.578,29.785,-114.746,96.191
1584600280.665,9.277,21.484,34.668,-27.832,68.359
1584600280.669,56.152,28.809,36.621,166.992,39.551
1584600280.673,41.016,23.926,33.203,114.258,44.922
1584600280.677,-6.836,19.531,28.809,-95.215,30.273
1584600280.681,1.953,24.902,30.273,-83.008,-3.906
1584600280.685,41.016,33.203,31.250,113.281,39.551
1584600280.688,42.969,28.809,32.227,140.137,22.949
1584600280.692,1.953,20.020,31.250,-42.969,-1.953
1584600280.696,-6.348,20.020,31.250,-111.328,70.801
1584600280.700,43.945,27.344,34.180,67.383,88.379
1584600280.704,62.500,29.785,34.180,161.621,-3.418
1584600280.708,22.949,23.438,28.320,5.859,-41.504
1584600280.712,-12.207,20.508,26.855,-118.652,-19.531
1584600280.716,22.461,29.297,31.250,11.719,28.320
1584600280.720,53.711,36.133,31.250,157.715,44.922
1584600280.724,20.508,29.785,27.344,63.965,66.406
1584600280.727,-19.531,20.996,24.414,-101.562,56.641
1584600280.731,-0.977,23.926,27.344,-33.203,-3.906
1584600280.735,45.410,30.273,33.203,146.484,12.695
1584600280.739,40.039,28.320,33.203,116.211,35.645
1584600280.743,-2.930,20.996,30.273,-69.824,8.301
1584600280.747,2.930,21.484,26.367,-84.473,-13.184
1584600280.751,47.852,27.832,25.391,100.586,-1.953
1584600280.755,41.504,28.809,26.367,150.391,11.719
1584600280.759,1.465,22.949,22.461,-19.043,-2.441
1584600280.763,2.930,23.926,21.484,-106.445,16.113
1584600280.767,41.016,32.715,27.344,48.828,6.836
1584600280.770,45.410,35.156,32.227,170.898,-4.395
1584600280.774,13.672,26.367,30.273,42.969,55.176
1584600280.778,-6.836,20.996,29.297,-106.445,29.297
1584600280.782,30.762,27.832,29.297,10.254,25.879
1584600280.786,70.801,32.715,27.344,169.922,60.059
1584600280.790,41.992,28.320,22.461,83.984,4.395
1584600280.794,-1.953,24.902,19.531,-98.145,0.977
1584600280.798,10.254,30.762,22.949,-51.270,16.113
1584600280.802,41.992,37.109,28.320,144.531,16.113
1584600280.806,38.574,31.738,28.809,135.742,37.598
1584600280.810,-5.371,20.508,21.973,-65.430,26.855
1584600280.813,-5.859,22.949,20.508,-101.074,8.789
1584600280.817,40.527,30.762,29.785,91.797,-37.109
1584600280.821,54.688,33.203,34.668,163.086,9.766
1584600280.825,18.066,27.344,26.367,-3.418,56.152
1584600280.829,4.883,22.461,22.949,-113.770,1.953
1584600280.833,43.945,31.250,27.832,39.062,-4.395
1584600280.837,55.664,36.133,33.203,170.898,40.527
1584600280.841,13.184,27.832,29.785,45.898,75.195
1584600280.845,-17.090,20.996,27.344,-116.699,72.754
1584600280.849,20.996,26.367,31.250,-23.926,50.781
1584600280.852,62.012,35.156,31.250,149.902,33.203
1584600280.856,31.250,33.203,31.738,93.750,64.941
1584600280.860,-18.555,22.461,26.367,-91.309,58.594
1584600280.864,2.930,22.949,22.461,-72.266,20.508
1584600280.868,40.527,31.738,27.832,121.582,29.297
1584600280.872,34.668,31.738,27.344,136.230,66.895
1584600280.876,0.000,23.926,20.508,-49.316,24.902
1584600280.880,-6.836,23.438,23.438,-101.562,-24.414
1584600280.884,34.180,29.785,31.738,83.984,4.395
1584600280.888,52.734,31.738,33.203,163.086,-41.992
1584600280.892,16.113,25.391,31.738,1.465,-37.598
1584600280.895,-2.930,21.973,24.902,-116.211,12.695
1584600280.899,31.738,27.832,24.902,16.602,20.508
1584600280.903,53.711,33.203,28.809,163.086,36.621
1584600280.907,25.391,27.344,22.949,58.594,25.879
1584600280.911,-7.324,21.484,21.484,-113.281,19.043
1584600280.915,21.484,29.297,28.809,-26.855,42.969
1584600280.919,52.246,34.668,32.227,160.645,25.391
1584600280.923,38.086,29.297,28.320,115.234,-7.324
1584600280.927,5.371,21.973,24.414,-81.055,-15.137
1584600280.931,9.766,26.367,25.879,-76.172,21.484
1584600280.935,41.016,34.180,28.809,117.676,53.223
1584600280.938,34.668,31.250,28.809,144.043,34.180
1584600280.942,-6.836,21.484,25.879,-40.527,26.855
1584600280.946,-4.395,25.391,28.809,-109.863,54.688
1584600280.950,48.340,33.203,33.203,71.289,44.922
1584600280.954,64.453,27.832,32.715,172.363,44.922
1584600280.958,25.391,20.508,30.273,20.020,-3.906
1584600280.962,-5.859,21.973,25.391,-117.676,8.301
1584600280.966,24.902,31.738,25.879,9.766,36.621
1584600280.970,56.641,34.180,27.832,165.527,26.855
1584600280.974,26.367,26.367,24.414,69.336,-13.184
1584600280.977,-13.672,19.531,23.926,-109.863,-39.551
1584600280.981,2.930,23.438,29.785,-43.457,21.973
1584600280.985,43.945,28.809,32.227,140.137,36.133
1584600280.989,37.598,29.785,24.902,111.816,-32.227
1584600280.993,-9.277,26.367,21.484,-78.613,-57.617
1584600280.997,-5.859,25.391,26.855,-91.309,3.906
1584600281.001,46.875,32.715,31.250,103.027,24.414
1584600281.005,48.828,32.227,28.320,148.438,14.648
1584600281.009,-1.465,26.367,24.414,-28.320,29.785
1584600281.013,-19.043,28.320,24.414,-107.910,14.648
1584600281.017,23.926,38.574,28.320,56.641,22.461
1584600281.020,46.875,39.062,29.785,169.922,62.500
1584600281.024,15.137,29.785,24.414,32.227,40.527
1584600281.028,-10.254,24.902,20.996,-110.352,26.367
1584600281.032,23.438,28.809,27.344,1.953,44.922
1584600281.036,62.500,33.691,32.227,152.344,5.371
1584600281.040,45.898,26.855,32.227,76.660,11.719
1584600281.044,-0.977,20.508,29.785,-98.633,50.781
1584600281.048,4.883,25.391,30.273,-60.059,45.410
1584600281.052,34.668,33.203,32.715,129.883,31.738
1584600281.056,25.879,32.227,30.762,129.395,38.086
1584600281.060,-2.441,19.043,25.879,-62.988,50.293
1584600281.063,4.883,17.578,26.855,-93.750,45.898
1584600281.067,50.781,29.785,32.227,97.168,43.457
1584600281.071,50.781,30.273,31.250,162.598,35.156
1584600281.075,2.930,25.879,26.367,-8.301,85.449
1584600281.079,-14.648,25.879,26.855,-119.141,56.641
1584600281.083,32.715,29.785,35.156,33.203,-36.621
1584600281.087,65.430,31.738,39.062,167.969,2.930
1584600281.091,32.227,23.438,32.227,47.363,23.438
1584600281.095,-6.348,19.043,27.832,-111.816,18.555
1584600281.099,17.090,27.832,32.715,-16.113,55.176
1584600281.102,55.176,34.668,32.715,159.180,48.340
1584600281.106,44.434,31.250,29.297,98.145,80.566
1584600281.110,12.695,24.902,28.320,-90.332,38.574
1584600281.114,13.672,27.344,29.785,-71.289,-11.230
1584600281.118,45.898,29.785,32.227,120.117,33.203
1584600281.122,38.086,25.391,33.203,137.207,18.555
1584600281.126,-13.672,20.508,27.832,-50.293,34.668
1584600281.130,-17.578,23.926,24.414,-104.980,39.551
1584600281.134,23.926,35.156,28.320,81.055,17.090
1584600281.138,38.574,32.715,28.809,161.133,75.684
1584600281.142,2.441,21.973,23.926,-5.371,73.730
1584600281.145,-9.277,22.461,23.438,-115.723,46.387
1584600281.149,39.062,30.762,28.320,29.785,45.410
1584600281.153,65.430,34.668,29.297,162.109,54.688
1584600281.157,21.973,26.855,23.926,52.246,41.504
1584600281.161,-27.832,22.461,23.438,-114.258,33.691
1584600281.165,3.906,30.762,29.785,-37.598,75.684
1584600281.169,47.363,37.109,30.762,146.484,59.082
1584600281.173,33.203,31.250,24.414,105.957,19.531
1584600281.177,-2.441,20.996,22.461,-82.520,52.734
1584600281.181,18.066,22.461,27.344,-78.613,72.754
1584600281.185,64.453,32.715,32.227,107.422,37.598
1584600281.188,49.316,33.203,30.762,141.113,30.762
1584600281.192,-8.789,27.832,24.414,-37.109,27.832
1584600281.196,-17.090,27.832,21.973,-118.164,5.859
1584600281.200,34.180,35.645,24.414,59.082,15.625
1584600281.204,58.105,38.574,25.391,165.039,56.152
1584600281.208,27.344,28.320,23.926,14.648,39.551
1584600281.212,-1.953,25.391,24.902,-117.676,-9.766
1584600281.216,31.250,34.180,28.320,3.906,46.875
1584600281.220,64.941,37.109,30.273,159.668,62.988
1584600281.224,33.691,29.297,26.367,70.801,5.371
1584600281.227,-6.836,23.926,20.996,-113.281,-34.180
1584600281.231,15.137,30.273,23.926,-55.664,-26.367
1584600281.235,50.781,38.086,28.320,136.719,-27.344
1584600281.239,44.434,33.203,27.344,110.352,-7.324
1584600281.243,10.254,28.320,22.461,-79.590,26.367
1584600281.247,14.160,33.203,27.832,-88.867,19.531
1584600281.251,48.340,33.691,35.156,104.004,32.227
1584600281.255,44.434,28.809,33.203,150.879,30.762
1584600281.259,6.348,22.461,28.809,-23.926,19.043
1584600281.263,-0.977,21.484,29.297,-111.328,19.043
1584600281.267,38.574,28.809,33.203,45.898,-2.441
1584600281.270,46.875,28.320,34.180,163.086,11.719
1584600281.274,19.043,25.879,28.320,23.438,18.555
1584600281.278,-5.371,24.414,27.344,-124.023,-10.742
1584600281.282,24.902,30.273,30.762,-8.301,-2.930
1584600281.286,59.570,33.691,34.180,161.133,20.020
1584600281.290,35.645,28.320,31.738,94.238,30.273
1584600281.294,-5.859,23.438,28.320,-90.820,24.902
1584600281.298,11.719,24.902,32.227,-50.781,13.672
1584600281.302,60.547,31.250,33.691,144.043,25.391
1584600281.306,45.898,34.180,30.762,144.043,38.574
1584600281.310,-1.953,27.832,26.855,-51.758,29.297
1584600281.313,-0.488,26.367,25.391,-99.609,24.414
1584600281.317,42.969,32.715,30.762,86.914,33.691
1584600281.321,59.570,33.203,35.156,154.785,57.617
1584600281.325,23.926,25.879,32.227,-9.766,44.922
1584600281.329,-0.488,23.438,27.344,-112.305,-24.902
1584600281.333,33.203,34.668,31.738,32.227,7.812
1584600281.337,53.711,38.574,35.645,161.133,63.965
1584600281.341,27.344,28.320,29.297,46.387,60.059
1584600281.345,-9.277,22.461,24.414,-116.699,3.906
1584600281.349,5.859,29.785,27.832,-17.578,21.484
1584600281.352,40.527,35.156,30.762,159.668,62.012
1584600281.356,20.508,26.367,29.297,92.285,31.250
1584600281.360,-17.090,16.113,27.832,-98.633,9.277
1584600281.364,-0.488,20.508,30.273,-81.055,35.156
1584600281.368,53.223,29.785,32.227,112.305,52.246
1584600281.372,49.316,26.855,33.691,131.836,65.918
1584600281.376,-1.465,18.066,30.762,-54.688,65.918
1584600281.380,-4.883,24.414,30.273,-109.863,7.812
1584600281.384,41.016,35.156,35.156,75.195,-8.301
1584600281.388,48.828,33.203,34.668,164.062,43.945
1584600281.392,13.672,24.902,26.855,4.395,50.781
1584600281.395,0.000,24.414,27.344,-108.887,-4.883
1584600281.399,33.203,30.273,32.715,25.879,16.602
1584600281.403,49.316,31.250,29.785,156.738,33.203
1584600281.407,20.508,26.367,26.855,53.711,59.570
1584600281.411,-7.812,23.438,21.973,-114.258,69.824
1584600281.415,10.254,28.320,25.879,-36.133,-0.977
1584600281.419,51.758,32.715,31.250,150.879,2.441
1584600281.423,37.598,27.344,29.297,106.445,46.875
1584600281.427,-19.043,21.484,28.320,-87.402,31.250
1584600281.431,-9.277,25.879,31.250,-80.566,53.711
1584600281.435,44.434,30.762,34.668,120.605,26.367
1584600281.438,51.758,27.344,30.762,152.344,17.578
1584600281.442,14.160,19.043,23.438,-42.480,56.641
1584600281.446,0.000,20.508,23.438,-116.211,41.504
1584600281.450,25.391,27.344,31.250,62.988,82.520
1584600281.454,34.668,27.344,33.691,167.969,59.082
1584600281.458,10.742,26.367,30.273,21.973,4.883
1584600281.462,-7.812,26.855,28.320,-112.793,38.086
1584600281.466,24.414,28.320,31.250,10.742,28.809
1584600281.470,52.246,34.668,30.762,161.621,22.461
1584600281.474,22.949,29.785,24.902,69.824,40.527
1584600281.477,-13.184,16.113,25.391,-106.934,31.738
1584600281.481,7.812,20.508,33.203,-45.410,26.367
1584600281.485,46.875,31.250,39.062,148.438,-16.602
1584600281.489,33.203,30.273,36.621,123.535,-8.301
1584600281.493,-5.859,23.926,33.691,-69.824,16.113
1584600281.497,2.441,24.902,35.156,-84.961,-14.160
1584600281.501,41.992,29.785,37.109,105.469,1.465
1584600281.505,45.898,26.367,37.109,158.203,35.645
1584600281.509,0.977,19.531,34.180,-20.508,29.785
1584600281.513,-16.113,18.555,35.156,-120.117,33.691
1584600281.517,30.762,25.391,38.086,41.016,41.504
1584600281.520,58.105,28.809,39.062,163.086,20.996
1584600281.524,18.555,18.066,32.227,28.809,5.859
1584600281.528,-6.348,14.648,24.902,-123.535,62.012
1584600281.532,29.297,24.414,28.809,-9.766,82.520
1584600281.536,56.152,28.809,30.762,161.133,108.887
1584600281.540,28.320,23.438,28.809,81.055,70.801
1584600281.544,-14.648,20.020,26.855,-103.516,0.977
1584600281.548,4.395,27.344,28.320,-60.547,7.324
1584600281.552,48.828,29.297,31.738,135.742,-1.465
1584600281.556,43.945,25.391,33.691,133.789,12.695
1584600281.560,1.953,20.996,29.297,-58.594,47.852
1584600281.563,-0.488,22.461,27.832,-95.703,-7.324
1584600281.567,43.945,29.297,34.180,89.355,-7.324
1584600281.571,52.734,30.273,35.156,163.086,56.152
1584600281.575,3.418,22.949,32.227,-2.441,48.340
1584600281.579,-16.602,20.020,32.715,-114.746,15.625
1584600281.583,27.832,29.297,34.668,36.621,33.203
1584600281.587,58.594,32.715,32.227,166.992,15.625
1584600281.591,32.227,25.391,24.414,49.805,0.000
1584600281.595,2.441,19.531,24.902,-110.352,19.531
1584600281.599,42.969,24.902,30.762,-23.926,22.949
1584600281.602,73.730,28.320,35.156,148.926,25.879
1584600281.606,32.715,23.438,36.621,86.914,37.598
1584600281.610,-18.555,20.996,31.250,-99.609,43.945
1584600281.614,-10.742,24.414,30.273,-75.195,26.367
1584600281.618,34.668,25.391,37.598,125.000,36.133
1584600281.622,38.086,20.508,36.133,140.625,-14.160
1584600281.626,-4.883,16.602,25.879,-47.363,18.555
1584600281.630,-0.977,19.531,25.879,-104.492,62.500
1584600281.634,45.898,28.320,32.227,75.684,66.406
1584600281.638,48.828,26.367,32.227,166.992,16.602
1584600281.642,7.324,16.602,28.809,8.789,-8.789
1584600281.645,-14.160,15.625,26.367,-117.676,37.109
1584600281.649,26.367,25.879,29.297,19.043,29.785
1584600281.653,52.734,29.785,36.621,173.828,60.547
1584600281.657,25.391,25.879,35.156,65.918,20.996
1584600281.661,-3.418,21.484,28.809,-105.957,16.113
1584600281.665,17.578,22.461,29.785,-26.367,31.250
1584600281.669,51.270,25.391,32.227,160.156,-4.883
1584600281.673,37.109,22.949,31.250,127.930,5.859
1584600281.677,1.465,20.508,26.367,-68.848,29.785
1584600281.681,8.789,24.414,27.344,-70.801,-3.418
1584600281.685,59.082,27.832,32.227,125.488,38.574
1584600281.688,49.316,23.926,31.250,154.785,86.914
1584600281.692,-8.789,16.602,27.344,-31.250,64.941
1584600281.696,-11.230,19.043,28.320,-106.445,42.480
1584600281.700,29.297,30.273,31.738,64.941,51.270
1584600281.704,50.781,30.273,29.785,170.898,57.617
1584600281.708,18.555,18.066,25.391,16.602,74.219
1584600281.712,-14.648,18.066,28.320,-123.047,39.551
1584600281.716,14.160,30.273,35.156,11.230,-8.301
1584600281.720,53.711,34.668,32.227,173.340,-5.859
1584600281.724,38.574,30.762,24.902,83.984,32.227
1584600281.727,-1.465,25.879,21.973,-102.051,10.742
1584600281.731,5.859,29.297,23.438,-42.480,-11.230
1584600281.735,43.457,32.715,28.320,151.367,19.043
1584600281.739,39.551,28.320,29.785,125.977,25.391
1584600281.743,5.371,23.438,22.949,-70.312,10.742
1584600281.747,13.672,26.367,24.902,-83.984,47.852
1584600281.751,53.711,32.715,29.785,110.840,25.879
1584600281.755,51.758,31.738,29.297,155.762,-8.301
1584600281.759,5.371,22.461,25.879,-21.484,33.691
1584600281.763,-14.160,17.090,28.809,-104.980,4.395
1584600281.767,21.973,22.461,34.180,56.641,-9.277
1584600281.770,53.223,27.344,33.691,170.898,24.902
1584600281.774,21.484,20.020,29.785,36.133,24.902
1584600281.778,-14.160,14.648,27.344,-111.816,44.922
1584600281.782,11.230,25.391,32.227,0.488,78.125
1584600281.786,47.852,30.273,33.691,168.457,62.500
1584600281.790,36.621,24.414,26.855,96.191,24.902
1584600281.794,-2.441,19.531,23.438,-95.215,14.160
1584600281.798,11.230,22.461,29.297,-62.500,29.297
1584600281.802,51.758,30.273,33.691,131.836,22.949
1584600281.806,41.016,29.785,29.785,131.836,16.602
1584600281.810,-0.977,23.438,24.414,-58.105,20.020
1584600281.813,-0.488,26.367,27.832,-92.773,57.129
1584600281.817,41.504,32.227,31.738,92.285,75.684
1584600281.821,51.758,27.832,28.809,162.109,59.570
1584600281.825,16.602,17.578,25.391,-5.859,23.926
1584600281.829,-0.488,16.602,25.879,-106.445,15.137
1584600281.833,42.480,28.809,28.809,44.922,-7.324
1584600281.837,66.895,34.180,30.273,165.039,-18.066
1584600281.841,27.344,22.949,29.297,47.852,-3.418
1584600281.845,-5.859,20.020,24.902,-112.793,28.320
1584600281.849,18.555,30.273,26.367,-22.949,25.391
1584600281.852,59.570,33.691,32.715,157.715,-3.906
1584600281.856,45.898,25.879,34.180,107.910,36.133
1584600281.860,3.418,20.508,27.344,-83.496,81.055
1584600281.864,10.742,24.414,24.414,-71.289,72.266
1584600281.868,45.898,30.273,25.391,123.047,14.648
1584600281.872,44.434,30.273,24.414,139.160,41.992
1584600281.876,2.930,21.973,21.484,-47.363,38.574
1584600281.880,-2.930,20.508,27.344,-94.727,11.230
1584600281.884,55.176,27.832,35.156,83.008,85.449
1584600281.888,75.195,32.227,35.645,156.250,20.508
1584600281.892,17.578,27.344,31.738,-3.418,-20.996
1584600281.895,-11.719,22.461,30.273,-117.676,29.785
1584600281.899,34.180,28.809,36.621,30.273,30.273
1584600281.903,61.035,35.156,38.086,174.316,61.035
1584600281.907,28.809,31.738,33.203,67.383,58.105
1584600281.911,-7.812,24.902,27.832,-105.469,17.578
1584600281.915,21.484,28.320,29.785,-38.086,22.949
1584600281.919,58.105,33.691,34.668,143.555,1.953
1584600281.923,41.016,33.691,31.738,106.934,22.461
1584600281.927,9.766,28.809,26.855,-80.566,18.066
1584600281.931,17.090,31.738,27.832,-70.312,11.230
1584600281.935,56.152,36.133,33.203,118.652,70.801
1584600281.938,52.246,29.785,35.156,151.367,81.543
1584600281.942,0.488,21.973,31.250,-26.367,16.113
1584600281.946,-11.719,23.926,27.344,-104.980,7.324
1584600281.950,35.645,32.715,30.273,64.453,31.738
1584600281.954,56.152,32.227,34.668,171.387,0.977
1584600281.958,24.902,21.973,32.227,31.250,-1.953
1584600281.962,-3.906,17.090,29.297,-105.469,0.000
1584600281.966,17.090,27.344,34.668,17.090,10.742
1584600281.970,49.316,33.203,39.551,174.316,57.617
1584600281.974,21.973,25.391,32.715,84.473,82.031
1584600281.977,-17.578,20.508,23.438,-103.516,47.363
1584600281.981,7.324,29.297,25.879,-56.641,23.438
1584600281.985,49.316,34.668,32.227,127.930,-9.277
1584600281.989,41.992,26.367,31.738,109.863,18.555
1584600281.993,7.324,20.996,26.855,-75.195,25.391
1584600281.997,15.625,22.949,26.367,-92.773,21.973
1584600282.001,49.805,28.809,26.855,96.680,40.527
1584600282.005,48.340,28.320,26.855,149.902,5.859
1584600282.009,6.348,22.949,24.414,-25.391,4.883
1584600282.013,-7.812,21.973,23.926,-119.141,-14.648
1584600282.017,34.180,32.715,29.785,45.898,-49.316
1584600282.020,46.387,36.133,30.762,163.086,-32.227
1584600282.024,10.254,24.902,27.832,32.227,14.160
1584600282.028,-11.719,19.531,29.785,-114.746,13.672
1584600282.032,29.785,27.832,35.645,-4.883,18.555
1584600282.036,67.871,34.668,35.156,165.039,40.527
1584600282.040,34.180,31.250,28.320,88.379,59.082
1584600282.044,-11.230,24.414,27.832,-94.238,56.152
1584600282.048,5.859,28.320,29.785,-51.270,63.965
1584600282.052,48.340,32.227,30.273,140.137,57.617
1584600282.056,52.246,26.367,31.738,133.789,-18.555
1584600282.060,10.254,20.996,30.273,-55.664,15.137
1584600282.063,-2.930,26.367,26.855,-92.285,19.043
1584600282.067,47.363,32.227,28.320,86.914,-19.043
1584600282.071,62.012,30.273,29.785,162.109,-3.906
1584600282.075,19.531,23.926,25.879,-0.488,-23.438
1584600282.079,-5.371,20.508,25.879,-116.211,18.066
1584600282.083,22.949,27.344,29.785,30.273,38.574
1584600282.087,44.922,33.691,29.785,166.504,33.691
1584600282.091,17.578,31.250,25.391,49.316,31.738
1584600282.095,-14.648,24.414,26.367,-114.258,-4.395
1584600282.099,13.184,26.855,29.297,-19.531,16.113
1584600282.102,56.641,34.180,32.227,161.133,51.270
1584600282.106,34.668,29.785,29.785,109.375,25.391
1584600282.110,-21.484,19.043,24.414,-83.984,15.625
1584600282.114,-7.812,22.461,30.273,-65.430,36.621
1584600282.118,41.992,31.250,32.715,131.836,48.340
1584600282.122,40.527,29.785,26.367,136.230,53.711
1584600282.126,3.906,23.438,20.020,-59.082,64.941
1584600282.130,-0.488,26.367,20.508,-117.188,83.496
1584600282.134,38.574,33.203,29.297,68.848,32.715
1584600282.138,55.664,31.738,29.297,163.574,7.812
1584600282.142,15.625,24.902,27.344,8.789,-12.207
1584600282.145,-15.137,20.996,28.320,-113.281,-6.348
1584600282.149,20.508,30.762,32.227,22.461,-14.160
1584600282.153,52.734,35.156,36.133,174.316,16.602
1584600282.157,24.414,23.438,32.227,67.871,53.711
1584600282.161,-8.301,17.090,24.902,-107.422,-5.371
1584600282.165,16.113,26.367,27.832,-27.832,50.293
1584600282.169,53.711,34.180,29.785,142.090,71.777
1584600282.173,41.016,29.785,24.902,96.191,8.301
1584600282.177,-6.348,25.879,22.461,-88.867,-30.762
1584600282.181,-0.977,30.762,22.949,-82.031,4.395
1584600282.185,47.363,34.668,24.414,115.234,35.156
1584600282.188,46.875,30.762,23.438,150.879,-10.254
1584600282.192,8.789,22.949,23.438,-29.297,10.742
1584600282.196,-1.465,24.902,24.902,-102.051,70.312
1584600282.200,40.039,34.180,31.250,70.801,75.684
1584600282.204,48.340,32.715,33.691,171.387,46.875
1584600282.208,6.348,26.855,23.926,16.602,33.691
1584600282.212,-9.766,26.855,20.996,-117.188,75.684
1584600282.216,31.738,34.668,27.832,3.906,82.031
1584600282.220,72.754,36.621,31.250,151.367,31.250
1584600282.224,46.875,29.297,31.250,69.336,-6.836
1584600282.227,-0.488,22.949,29.297,-104.004,7.324
1584600282.231,19.531,29.785,30.762,-41.016,-1.953
1584600282.235,65.430,39.551,32.715,145.996,58.594
1584600282.239,49.316,31.738,27.344,116.699,52.246
1584600282.243,1.953,23.438,23.438,-70.312,0.977
1584600282.247,-11.230,28.809,24.902,-83.496,27.832
1584600282.251,27.344,36.133,27.832,103.516,14.160
1584600282.255,46.875,34.180,28.320,153.809,-7.812
1584600282.259,17.578,28.320,27.344,-22.949,11.719
1584600282.263,-3.418,29.297,24.902,-112.305,25.879
1584600282.267,26.367,32.227,30.273,48.340,43.945
1584600282.270,46.875,33.691,32.715,165.527,14.648
1584600282.274,5.859,28.809,29.785,35.645,-8.789
1584600282.278,-26.367,26.855,26.367,-120.605,-7.812
1584600282.282,10.254,35.156,27.832,-10.742,19.531
1584600282.286,53.711,41.992,29.785,162.109,67.871
1584600282.290,37.109,36.621,26.367,84.473,27.344
1584600282.294,-0.488,30.762,23.926,-98.145,3.418
1584600282.298,13.184,37.598,22.949,-63.965,-4.883
1584600282.302,52.734,44.922,27.344,122.559,38.574
1584600282.306,48.828,35.645,27.344,123.535,82.520
1584600282.310,6.348,23.438,23.438,-69.824,30.762
1584600282.313,0.000,25.391,24.414,-109.863,48.340
1584600282.317,48.340,32.715,30.273,84.961,80.078
1584600282.321,49.316,29.785,30.762,164.062,-0.488
1584600282.325,-13.184,21.484,25.879,-4.395,-66.895
1584600282.329,-31.250,22.949,27.344,-113.770,-33.203
1584600282.333,12.695,29.297,34.180,38.574,45.410
1584600282.337,39.551,28.320,37.598,168.457,109.375
1584600282.341,17.578,22.949,34.668,47.852,79.102
1584600282.345,-13.184,20.020,33.203,-111.816,3.418
1584600282.349,12.695,28.320,40.039,-22.461,-4.883
1584600282.352,59.082,36.621,46.875,151.367,28.320
1584600282.356,38.086,28.809,43.945,95.215,19.043
1584600282.360,-13.184,16.113,38.574,-87.402,24.414
1584600282.364,0.977,22.461,41.016,-64.941,25.391
1584600282.368,50.293,34.180,43.457,128.418,56.641
1584600282.372,41.992,31.250,38.574,139.648,68.848
1584600282.376,-2.930,22.949,34.668,-52.246,60.059
1584600282.380,-0.977,23.438,39.062,-105.957,49.316
1584600282.384,46.387,29.297,46.387,77.148,4.395
1584600282.388,49.805,31.250,46.875,168.457,1.953
1584600282.392,5.371,23.438,43.457,8.789,27.832
1584600282.395,-15.137,17.578,37.598,-125.977,-22.949
1584600282.399,16.602,26.367,39.551,10.742,-54.199
1584600282.403,43.457,31.738,41.016,160.645,-25.391
1584600282.407,16.602,30.273,33.691,61.523,39.062
1584600282.411,-15.137,28.809,31.738,-108.398,62.500
1584600282.415,12.207,31.738,37.109,-39.062,26.855
1584600282.419,56.152,34.668,41.504,146.973,18.555
1584600282.423,37.109,26.855,38.574,110.840,14.648
1584600282.427,-12.695,18.555,35.645,-74.707,8.301
1584600282.431,-0.488,21.484,37.109,-80.078,-1.953
1584600282.435,50.781,29.297,37.109,107.910,9.277
1584600282.438,46.875,25.391,37.109,152.832,30.762
1584600282.442,0.000,16.602,35.645,-29.785,61.035
1584600282.446,-8.301,18.555,33.691,-112.305,54.688
1584600282.450,42.969,30.762,36.133,60.547,29.785
1584600282.454,63.477,33.203,36.621,167.480,41.504
1584600282.458,19.531,23.926,31.738,17.578,51.270
1584600282.462,-21.484,19.043,33.203,-122.559,59.082
1584600282.466,4.883,26.855,40.039,13.184,44.922
1584600282.470,48.340,33.203,37.598,172.852,34.668
1584600282.474,20.996,27.832,33.203,76.172,12.695
1584600282.477,-24.414,21.973,31.738,-106.934,53.711
1584600282.481,3.906,26.855,31.738,-39.551,55.664
1584600282.485,52.734,31.250,36.133,154.785,53.711
1584600282.489,42.969,27.344,36.133,125.977,83.984
1584600282.493,-5.859,23.438,33.203,-63.477,43.457
1584600282.497,-4.883,24.414,33.691,-78.613,44.434
1584600282.501,44.434,31.250,34.180,106.445,50.781
1584600282.505,43.457,29.785,34.180,148.438,42.969
1584600282.509,-4.395,21.484,29.785,-26.855,12.695
1584600282.513,-19.531,20.996,26.855,-112.793,-0.488
1584600282.517,25.391,30.273,33.203,51.758,53.223
1584600282.520,53.711,34.180,35.645,165.527,14.648
1584600282.524,20.508,30.273,30.273,37.109,-58.594
1584600282.528,-15.625,22.949,26.855,-106.445,11.230
1584600282.532,12.695,20.508,28.809,-3.906,53.711
1584600282.536,54.688,24.902,32.227,165.527,12.207
1584600282.540,34.180,23.926,29.785,94.727,1.465
1584600282.544,-9.766,19.531,21.973,-96.680,-25.391
1584600282.548,8.789,26.855,22.949,-65.430,-23.926
1584600282.552,54.688,37.109,30.273,126.953,32.715
1584600282.556,44.922,32.227,30.762,132.324,49.805
1584600282.560,1.953,21.973,25.391,-54.199,8.789
1584600282.563,1.953,23.438,23.438,-93.262,13.672
1584600282.567,46.387,30.273,28.320,94.238,36.133
1584600282.571,53.223,30.273,28.320,162.109,43.457
1584600282.575,5.859,22.949,20.020,-1.953,17.578
1584600282.579,-13.184,20.020,16.113,-106.445,-9.277
1584600282.583,27.344,24.902,20.508,32.227,28.320
1584600282.587,50.293,29.297,23.926,165.039,40.039
1584600282.591,17.578,23.926,20.996,47.852,34.668
1584600282.595,-15.137,21.484,18.555,-121.094,39.062
1584600282.599,9.277,30.762,20.996,-28.809,8.301
1584600282.602,44.922,35.645,26.367,154.297,1.953
1584600282.606,25.879,32.227,26.367,95.215,51.758
1584600282.610,-13.184,24.414,18.066,-100.586,46.875
1584600282.614,5.859,26.367,18.555,-78.125,41.016
1584600282.618,50.781,32.715,23.926,121.582,78.613
1584600282.622,40.527,31.250,26.367,135.742,14.160
1584600282.626,-7.324,23.926,22.949,-45.898,-50.781
1584600282.630,-5.859,25.879,20.996,-104.980,16.602
1584600282.634,33.691,34.180,25.879,65.430,21.484
1584600282.638,35.156,33.203,28.809,153.809,48.340
1584600282.642,-3.418,23.926,24.902,0.000,21.973
1584600282.645,-20.508,22.461,22.949,-113.281,39.062
1584600282.649,27.344,30.273,25.879,24.902,96.191
1584600282.653,53.711,30.273,28.320,167.969,10.254
1584600282.657,16.113,23.438,25.391,63.477,22.461
1584600282.661,-22.461,21.484,21.973,-113.281,83.008
1584600282.665,3.906,29.785,26.855,-45.898,40.039
1584600282.669,47.852,36.133,34.180,146.973,41.504
1584600282.673,33.203,29.297,36.621,114.258,52.246
1584600282.677,-11.230,19.531,35.156,-81.543,29.785
1584600282.681,0.000,20.996,36.621,-79.102,32.227
1584600282.685,44.922,32.227,37.109,112.793,53.711
1584600282.688,45.898,34.180,35.156,148.438,75.195
1584600282.692,3.906,24.902,31.738,-27.344,14.160
1584600282.696,-7.812,25.391,33.203,-97.656,-33.203
1584600282.700,35.645,33.203,38.574,69.336,15.625
1584600282.704,54.199,35.645,40.039,170.410,56.152
1584600282.708,19.531,30.273,34.180,20.508,45.898
1584600282.712,-13.184,25.391,33.691,-116.211,30.273
1584600282.716,22.949,30.762,38.574,9.277,33.203
1584600282.720,63.965,38.086,41.016,165.527,52.246
1584600282.724,31.738,33.691,37.109,87.891,24.902
1584600282.727,-15.137,22.949,34.668,-94.238,-9.766
1584600282.731,3.906,29.297,39.062,-48.340,4.395
1584600282.735,52.246,36.133,42.480,151.367,38.086
1584600282.739,47.852,30.273,38.086,131.836,4.883
1584600282.743,6.348,24.902,31.738,-68.848,-35.645
1584600282.747,8.789,26.367,29.297,-93.262,17.090
1584600282.751,41.016,33.203,31.738,99.121,59.082
1584600282.755,41.992,32.715,28.809,161.133,83.984
1584600282.759,13.184,28.320,21.484,-21.484,57.129
1584600282.763,-1.953,30.273,21.973,-123.047,43.457
1584600282.767,26.367,36.621,27.344,49.805,49.316
1584600282.770,52.246,38.086,25.879,168.457,0.977
1584600282.774,26.367,30.762,19.531,26.367,11.230
1584600282.778,1.953,24.902,20.020,-120.605,21.973
1584600282.782,27.344,32.715,29.297,-4.883,26.855
1584600282.786,50.293,36.621,35.156,164.551,39.062
1584600282.790,24.414,26.367,29.297,88.867,30.273
1584600282.794,-20.020,20.996,27.832,-90.820,26.855
1584600282.798,3.906,28.320,32.227,-56.152,15.625
1584600282.802,44.922,36.621,35.156,133.301,32.715
1584600282.806,31.738,33.691,34.668,132.324,45.410
1584600282.810,-1.465,24.902,32.227,-57.617,41.992
1584600282.813,7.324,29.297,34.180,-90.820,15.137
1584600282.817,46.387,39.551,36.621,91.309,39.551
1584600282.821,41.992,38.086,34.180,151.855,32.715
1584600282.825,5.859,34.180,27.344,-17.578,-4.395
1584600282.829,-8.301,35.156,24.902,-121.582,14.160
1584600282.833,27.832,37.598,32.715,30.273,27.344
1584600282.837,58.594,38.574,39.551,168.945,41.992
1584600282.841,29.785,34.668,34.180,54.688,33.203
1584600282.845,-3.906,30.273,27.344,-110.840,50.293
1584600282.849,18.066,33.691,30.762,-19.043,32.715
1584600282.852,62.988,42.480,34.668,157.227,28.809
1584600282.856,48.340,40.039,30.762,100.586,-20.508
1584600282.860,-3.418,29.785,24.414,-92.773,-35.645
1584600282.864,7.324,31.250,24.902,-80.078,46.875
1584600282.868,50.293,36.133,29.785,126.465,38.086
1584600282.872,41.016,32.227,31.738,151.367,6.348
1584600282.876,-2.930,24.414,28.809,-50.293,-26.855
1584600282.880,-5.371,27.344,30.762,-108.398,9.277
1584600282.884,38.574,35.645,39.551,83.008,41.504
1584600282.888,51.758,29.297,41.992,178.223,19.531
1584600282.892,15.137,19.043,35.156,17.578,35.156
1584600282.895,-9.277,22.949,28.320,-116.699,88.867
1584600282.899,23.438,35.156,30.273,19.043,67.383
1584600282.903,52.246,41.992,32.715,167.969,65.918
1584600282.907,34.668,34.668,30.273,60.059,55.176
1584600282.911,1.953,25.879,30.762,-112.793,-21.484
1584600282.915,15.625,33.203,37.109,-28.320,-17.090
1584600282.919,53.223,40.039,41.016,155.762,3.906
1584600282.923,43.457,35.645,34.668,106.445,33.691
1584600282.927,-1.465,29.785,28.809,-88.867,-24.414
1584600282.931,5.859,33.203,29.785,-87.891,-10.742
1584600282.935,57.617,39.551,33.691,110.352,49.805
1584600282.938,58.105,37.109,30.762,148.438,14.648
1584600282.942,5.371,26.855,24.902,-35.156,26.367
1584600282.946,-3.418,25.879,28.809,-105.957,14.160
1584600282.950,42.969,31.738,33.691,72.754,-35.645
1584600282.954,57.617,31.738,34.668,177.734,-34.180
1584600282.958,15.625,23.438,32.715,30.762,1.465
1584600282.962,-12.207,23.438,30.273,-119.629,1.953
1584600282.966,20.996,35.156,30.762,-4.883,22.461
1584600282.970,53.711,40.039,31.738,158.203,19.531
1584600282.974,26.367,34.668,28.809,74.219,-7.324
1584600282.977,-20.508,28.320,25.879,-104.004,33.203
1584600282.981,-0.488,31.250,32.227,-46.387,83.496
1584600282.985,51.270,36.621,34.668,144.043,83.496
1584600282.989,50.781,32.227,28.320,128.906,90.820
1584600282.993,19.043,24.902,26.855,-60.547,97.656
1584600282.997,19.043,24.414,31.738,-85.938,62.988
1584600283.001,48.828,30.762,33.691,105.469,39.062
1584600283.005,40.039,32.227,30.762,160.645,5.859
1584600283.009,-4.883,28.320,28.809,-15.137,16.113
1584600283.013,-10.742,29.297,27.344,-116.699,36.133
1584600283.017,24.414,39.551,31.250,39.062,80.566
1584600283.020,45.898,42.480,35.645,166.016,38.574
1584600283.024,16.602,31.738,30.762,37.109,-27.344
1584600283.028,-10.742,22.461,27.832,-114.258,-7.324
1584600283.032,26.367,31.738,33.203,-4.395,1.465
1584600283.036,58.105,37.109,37.109,165.527,23.926
1584600283.040,34.668,25.879,30.273,94.727,16.113
1584600283.044,-7.324,19.531,24.902,-100.586,-11.719
1584600283.048,5.371,28.320,28.809,-67.871,-12.207
1584600283.052,45.898,35.645,34.180,135.742,-14.648
1584600283.056,41.016,29.297,32.227,137.695,0.977
1584600283.060,2.441,24.902,27.832,-61.035,3.418
1584600283.063,-8.789,33.203,28.320,-106.934,22.949
1584600283.067,23.926,41.016,30.762,86.914,40.527
1584600283.071,43.945,39.062,29.785,161.133,57.617
1584600283.075,12.207,27.344,24.414,-7.812,45.898
1584600283.079,-3.418,27.832,21.973,-113.770,3.906
1584600283.083,36.621,39.551,26.855,37.109,6.348
1584600283.087,57.617,39.551,30.762,171.875,30.273
1584600283.091,28.809,31.738,24.414,50.781,31.738
1584600283.095,-6.348,27.344,20.020,-112.305,29.297
1584600283.099,16.113,33.203,26.367,-15.137,35.645
