timestamps,TP9,AF7,AF8,TP10,Right AUX
1584600330.563,26.855,28.320,24.902,51.758,22.461
1584600330.567,9.766,27.344,21.484,-42.969,-28.320
1584600330.571,3.906,37.109,25.879,-16.602,-30.762
1584600330.575,22.461,40.039,24.414,75.684,-11.719
1584600330.579,28.320,40.527,18.555,63.965,-16.113
1584600330.583,9.766,32.715,17.090,-22.949,-21.973
1584600330.587,7.324,30.273,19.531,-34.180,16.602
1584600330.591,36.133,45.898,26.855,56.152,-12.207
1584600330.595,38.574,49.805,28.809,91.309,-20.020
1584600330.599,18.066,38.086,22.461,1.465,0.488
1584600330.602,10.742,31.250,23.926,-45.898,30.273
1584600330.606,25.879,37.109,29.297,36.621,46.387
1584600330.610,38.574,44.434,27.344,95.215,32.715
1584600330.614,35.645,35.645,31.738,45.898,2.930
1584600330.618,14.648,24.902,35.645,-20.996,23.926
1584600330.622,10.742,25.391,31.250,17.090,55.176
1584600330.626,28.320,29.297,27.344,97.168,2.441
1584600330.630,20.508,33.691,24.414,60.059,28.320
1584600330.634,1.953,34.668,25.391,-37.109,33.203
1584600330.638,8.301,36.621,25.391,-21.973,14.648
1584600330.642,28.320,34.668,28.809,72.754,-20.020
1584600330.645,29.785,28.320,30.762,76.660,-24.902
1584600330.649,10.254,23.438,27.344,-15.625,24.414
1584600330.653,20.020,24.902,31.738,-33.691,31.250
1584600330.657,37.109,31.738,38.086,63.477,46.875
1584600330.661,27.832,28.809,36.621,100.586,65.430
1584600330.665,17.090,25.879,34.180,22.949,64.453
1584600330.669,9.766,21.973,30.273,-31.738,52.734
1584600330.673,28.320,26.367,32.715,39.062,60.059
1584600330.677,37.598,35.645,30.762,109.863,86.914
1584600330.681,6.836,31.250,22.949,48.828,47.363
1584600330.685,-10.742,20.508,18.066,-33.203,38.574
1584600330.688,9.277,12.207,16.113,0.000,70.312
1584600330.692,36.133,28.320,25.879,84.473,49.805
1584600330.696,39.062,41.016,33.691,62.988,13.672
1584600330.700,13.672,30.762,29.297,-35.645,-36.621
1584600330.704,3.906,16.602,26.855,-30.273,-43.457
1584600330.708,31.738,21.973,28.320,67.871,41.016
1584600330.712,30.762,30.762,18.555,69.336,39.551
1584600330.716,17.578,28.809,7.324,-22.461,-5.371
1584600330.720,55.176,29.297,19.531,-26.367,30.273
1584600330.724,59.082,29.785,40.039,58.105,56.641
1584600330.727,18.555,26.855,39.551,83.496,19.531
1584600330.731,-5.859,16.113,32.715,-5.371,14.160
1584600330.735,-14.160,8.789,32.715,-73.730,30.762
1584600330.739,3.906,14.648,39.062,3.418,53.711
1584600330.743,4.883,12.695,43.945,79.590,41.016
1584600330.747,-18.066,6.836,49.316,30.273,-6.348
1584600330.751,-21.484,9.766,55.664,-37.598,19.043
1584600330.755,-12.207,9.277,62.500,-0.488,-6.836
1584600330.759,-16.113,-0.488,62.500,77.148,23.438
1584600330.763,-39.551,-12.207,55.664,47.852,81.055
1584600330.767,-53.223,-18.555,53.223,-37.109,10.254
1584600330.770,-48.828,-20.996,52.734,-39.062,-17.578
1584600330.774,-29.297,-15.625,55.664,47.852,26.855
1584600330.778,-34.668,-17.090,51.758,66.406,50.293
1584600330.782,-60.059,-20.996,50.293,-18.555,36.621
1584600330.786,-48.340,-20.020,58.105,-47.363,22.461
1584600330.790,-27.344,-12.207,60.547,20.996,19.043
1584600330.794,-25.391,-5.859,66.406,78.125,24.414
1584600330.798,-30.762,-15.625,68.848,31.250,5.859
1584600330.802,-48.828,-25.879,66.406,-34.668,1.953
1584600330.806,-42.969,-21.484,65.430,7.812,-8.301
1584600330.810,-24.414,-15.625,63.965,80.078,0.488
1584600330.813,-28.320,-16.602,60.059,50.293,62.988
1584600330.817,-36.133,-19.043,54.199,-26.855,21.484
1584600330.821,-23.438,-14.160,60.547,-9.277,13.184
1584600330.825,2.441,1.953,68.848,80.078,52.734
1584600330.829,-3.418,-3.418,62.500,82.520,15.625
1584600330.833,-31.250,-21.484,49.805,-10.742,49.805
1584600330.837,-20.508,-13.184,49.316,-26.855,84.473
1584600330.841,8.301,-0.488,55.664,64.941,-14.648
1584600330.845,9.766,-7.324,52.246,97.656,-19.531
1584600330.849,-10.742,-7.812,50.781,27.832,77.148
1584600330.852,-12.207,9.277,55.176,-16.602,37.598
1584600330.856,6.836,14.160,51.270,46.387,-25.391
1584600330.860,14.648,14.160,45.410,110.840,10.254
1584600330.864,-1.953,10.254,39.551,57.129,13.184
1584600330.868,-11.719,8.789,41.992,-21.484,9.277
1584600330.872,4.395,9.766,44.922,16.113,75.195
1584600330.876,19.043,10.742,45.898,101.074,67.383
1584600330.880,18.066,13.672,51.758,80.566,29.785
1584600330.884,-0.977,8.789,44.922,-9.766,-3.906
1584600330.888,4.395,13.672,40.527,-4.883,31.738
1584600330.892,25.879,18.066,41.016,83.496,102.539
1584600330.895,25.391,14.160,37.109,90.332,57.617
1584600330.899,17.090,9.766,41.992,15.137,36.621
1584600330.903,22.461,12.695,46.387,-12.695,38.086
1584600330.907,28.809,23.438,39.062,51.758,33.203
1584600330.911,33.203,28.809,41.504,97.656,22.949
1584600330.915,21.973,30.273,46.875,36.133,38.086
1584600330.919,4.395,25.391,43.945,-18.066,57.129
1584600330.923,20.508,23.926,39.551,31.250,2.441
1584600330.927,30.762,19.043,36.621,90.820,10.742
1584600330.931,12.695,11.230,38.086,50.781,25.391
1584600330.935,-2.930,12.695,38.086,-22.461,35.156
1584600330.938,25.879,26.855,33.203,12.695,35.156
1584600330.942,60.059,32.715,35.156,111.816,-1.953
1584600330.946,40.527,26.367,47.363,102.051,84.473
1584600330.950,1.465,21.973,51.758,-1.953,93.750
1584600330.954,-6.836,18.555,45.410,-22.461,66.895
1584600330.958,17.578,18.555,46.875,68.359,95.215
1584600330.962,29.297,21.484,51.758,96.680,20.996
1584600330.966,7.324,17.090,50.293,16.113,9.277
1584600330.970,0.977,16.113,51.758,-15.137,39.551
1584600330.974,25.391,18.066,51.758,51.270,4.883
1584600330.977,30.762,17.090,46.875,99.121,41.504
1584600330.981,15.137,10.254,46.875,55.176,59.082
1584600330.985,7.812,8.301,45.898,-9.277,-0.488
1584600330.989,33.691,22.949,46.875,36.621,-1.953
1584600330.993,52.246,27.832,55.664,115.723,-31.738
1584600330.997,29.785,16.602,51.270,74.707,-66.406
1584600331.001,6.348,12.695,40.527,-9.277,-16.602
1584600331.005,21.484,21.484,44.922,11.719,104.004
1584600331.009,46.387,23.438,45.410,93.262,117.676
1584600331.013,32.227,16.113,41.016,90.332,46.387
1584600331.017,4.883,12.207,37.109,-0.977,14.160
1584600331.020,14.160,16.602,37.109,-18.555,-2.930
1584600331.024,34.180,27.344,40.039,71.289,58.105
1584600331.028,32.715,33.691,38.574,100.098,60.059
1584600331.032,19.043,25.879,36.621,25.879,75.684
1584600331.036,16.113,17.090,35.645,-15.137,109.375
1584600331.040,35.645,26.367,41.992,52.246,73.730
1584600331.044,39.551,32.227,41.504,103.027,65.918
1584600331.048,12.695,16.113,32.227,39.062,48.340
1584600331.052,3.418,12.695,37.598,-20.508,59.082
1584600331.056,27.344,27.344,46.875,32.715,52.734
1584600331.060,39.062,33.203,39.062,106.934,26.855
1584600331.063,21.973,27.344,34.668,68.359,-17.090
1584600331.067,3.906,28.809,38.574,-10.254,-6.348
1584600331.071,10.742,24.414,33.691,-0.488,63.477
1584600331.075,26.855,20.996,29.785,74.707,2.930
1584600331.079,24.414,22.461,35.645,86.914,-29.297
1584600331.083,0.977,15.625,30.762,2.930,-11.230
1584600331.087,-5.859,14.648,25.391,-20.508,8.301
1584600331.091,15.625,23.438,32.715,59.570,32.715
1584600331.095,24.414,35.156,35.156,95.703,43.945
1584600331.099,18.066,36.133,37.598,30.762,89.355
1584600331.102,10.254,29.785,35.156,-19.043,41.504
1584600331.106,15.625,25.391,31.250,37.598,-14.160
1584600331.110,23.438,27.344,30.273,89.355,-23.926
1584600331.114,12.695,26.367,26.367,34.180,-3.906
1584600331.118,0.000,21.973,29.785,-32.715,42.480
1584600331.122,22.949,27.832,40.039,8.789,6.348
1584600331.126,37.598,28.320,37.109,83.008,-9.766
1584600331.130,17.578,25.879,25.391,60.547,7.324
1584600331.134,4.395,23.438,23.438,-15.625,-7.324
1584600331.138,11.719,22.949,24.902,-14.648,18.555
1584600331.142,32.715,30.273,31.738,76.172,59.570
1584600331.145,32.227,25.879,34.668,88.379,75.195
1584600331.149,7.324,18.066,30.762,1.465,10.742
1584600331.153,4.883,24.414,32.227,-26.855,26.367
1584600331.157,25.879,31.738,35.645,45.410,28.809
1584600331.161,33.691,37.109,40.039,91.797,-40.039
1584600331.165,16.602,33.691,43.945,30.762,41.504
1584600331.169,12.207,23.926,42.969,-26.855,77.148
1584600331.173,21.973,20.996,34.180,27.832,-0.977
1584600331.177,25.391,26.367,26.367,90.820,-59.570
1584600331.181,20.020,30.273,26.855,47.852,-10.742
1584600331.185,9.766,36.621,35.156,-20.020,30.762
1584600331.188,22.461,41.016,41.016,3.418,6.348
1584600331.192,40.039,30.762,38.086,79.102,1.953
1584600331.196,29.297,23.926,33.203,64.941,20.020
1584600331.200,2.930,17.578,30.762,-19.043,96.680
1584600331.204,5.371,19.531,31.738,-20.996,71.777
1584600331.208,22.461,28.809,36.621,65.430,21.484
1584600331.212,25.391,34.668,36.133,81.055,17.578
1584600331.216,17.090,30.762,30.762,6.836,-6.836
1584600331.220,16.113,26.367,34.668,-23.438,20.996
1584600331.224,31.738,33.203,38.086,42.969,43.457
1584600331.227,41.504,33.203,32.715,91.797,32.227
1584600331.231,31.250,34.180,33.203,39.062,3.418
1584600331.235,29.297,37.598,41.992,-11.230,35.645
1584600331.239,39.551,32.715,39.062,34.668,50.293
1584600331.243,29.297,28.320,33.203,79.102,-1.465
1584600331.247,1.465,22.461,31.738,39.062,-14.160
1584600331.251,2.930,21.484,35.156,-18.066,-12.207
1584600331.255,27.832,29.297,36.133,-0.488,9.766
1584600331.259,41.016,34.180,33.203,76.660,14.648
1584600331.263,24.414,30.762,35.645,73.730,8.789
1584600331.267,4.883,20.020,36.621,-5.859,3.418
1584600331.270,10.254,19.043,34.180,-22.461,5.859
1584600331.274,27.344,25.391,36.133,53.223,67.383
1584600331.278,29.785,35.156,38.574,84.961,64.941
1584600331.282,13.184,36.621,37.109,17.090,27.344
1584600331.286,13.184,29.297,36.621,-30.273,0.488
1584600331.290,31.250,33.203,42.969,27.344,17.090
1584600331.294,29.785,33.691,44.922,79.102,57.129
1584600331.298,8.301,27.344,38.574,26.855,20.508
1584600331.302,6.348,28.809,47.852,-29.297,-24.902
1584600331.306,24.414,40.527,55.176,13.184,-14.648
1584600331.310,31.250,42.480,49.805,81.543,22.949
1584600331.313,13.184,31.250,41.992,52.734,39.062
1584600331.317,-1.953,23.926,38.086,-24.902,63.477
1584600331.321,3.418,20.508,36.621,-16.113,35.156
1584600331.325,21.484,23.926,41.504,72.266,17.578
1584600331.329,24.902,31.250,48.340,82.520,-5.371
1584600331.333,9.766,29.297,43.457,-4.883,1.953
1584600331.337,8.789,27.344,43.457,-19.043,75.684
1584600331.341,29.297,25.879,51.758,58.105,73.730
1584600331.345,31.738,27.344,47.852,84.473,58.105
1584600331.349,5.859,30.273,36.621,21.484,-0.488
1584600331.352,2.441,31.738,38.086,-29.297,-34.668
1584600331.356,24.414,36.133,42.969,27.832,19.043
1584600331.360,31.250,37.109,44.922,89.355,16.602
1584600331.364,18.555,35.156,52.246,52.246,7.812
1584600331.368,3.906,33.691,48.828,-20.996,-2.930
1584600331.372,14.648,36.133,41.016,1.953,17.578
1584600331.376,25.879,38.574,45.898,76.660,34.180
1584600331.380,19.531,34.668,45.898,60.547,39.551
1584600331.384,10.254,29.297,36.621,-17.578,23.926
1584600331.388,22.949,28.320,37.598,-22.949,-0.977
1584600331.392,40.527,27.832,43.457,65.918,12.207
1584600331.395,42.969,28.809,41.992,98.145,34.668
1584600331.399,32.227,31.250,39.062,24.414,-1.465
1584600331.403,9.766,33.691,34.180,-32.227,-19.531
1584600331.407,7.324,34.668,33.691,19.043,17.090
1584600331.411,15.625,29.785,36.621,64.941,30.762
1584600331.415,15.137,25.391,38.574,19.043,33.203
1584600331.419,14.160,21.973,37.109,-25.879,1.953
1584600331.423,28.809,25.391,32.715,23.438,36.621
1584600331.427,47.363,34.180,35.645,94.238,39.062
1584600331.431,38.086,29.785,36.621,57.617,-5.371
1584600331.435,17.090,21.484,33.203,-19.043,-5.371
1584600331.438,14.648,26.855,31.250,-4.883,6.348
1584600331.442,29.297,36.621,35.645,64.453,49.316
1584600331.446,30.273,35.156,39.062,64.453,47.852
1584600331.450,13.184,28.320,35.156,-1.953,49.316
1584600331.454,12.695,25.879,30.762,-17.090,41.992
1584600331.458,29.785,29.297,31.250,57.617,84.961
1584600331.462,36.621,27.832,35.156,93.750,98.145
1584600331.466,23.926,26.367,37.598,24.902,31.250
1584600331.470,12.695,27.344,33.691,-20.508,-34.180
1584600331.474,29.297,41.016,31.738,41.504,-30.273
1584600331.477,34.180,37.598,27.344,82.520,32.715
1584600331.481,20.996,24.414,24.414,30.273,38.086
1584600331.485,13.672,34.668,33.203,-28.809,35.645
1584600331.489,23.926,36.621,31.738,8.789,49.316
1584600331.493,37.109,30.762,31.738,86.426,47.852
1584600331.497,24.414,34.180,37.109,59.570,22.949
1584600331.501,11.719,30.762,37.598,-17.090,21.484
1584600331.505,35.645,35.156,39.551,8.789,40.039
1584600331.509,46.875,37.598,37.109,86.914,74.707
1584600331.513,26.855,23.438,31.738,66.895,39.551
1584600331.517,3.906,23.926,24.902,-21.973,16.602
1584600331.520,8.301,22.461,22.949,-33.203,36.133
1584600331.524,19.531,23.438,22.461,44.434,39.551
1584600331.528,16.602,31.250,20.996,61.035,49.316
1584600331.532,14.648,27.344,38.574,15.625,48.828
1584600331.536,37.109,25.879,47.852,18.555,34.668
1584600331.540,38.574,34.180,29.297,50.781,16.602
1584600331.544,5.859,42.969,23.438,55.176,22.949
1584600331.548,-3.906,43.457,26.855,7.324,55.664
1584600331.552,-11.719,33.691,24.414,-48.828,53.711
1584600331.556,-4.395,40.527,19.531,-16.602,102.539
1584600331.560,6.836,45.410,15.137,51.270,65.430
1584600331.563,-9.277,39.062,8.789,22.949,23.926
1584600331.567,-19.531,42.480,8.301,-51.758,41.016
1584600331.571,-7.324,44.922,13.184,-43.457,21.484
1584600331.575,6.348,43.945,10.254,21.484,55.664
1584600331.579,3.418,53.223,4.395,21.484,86.914
1584600331.583,-20.996,53.711,-3.418,-60.547,35.645
1584600331.587,-25.879,51.758,-6.348,-90.332,43.457
1584600331.591,-4.395,52.246,-2.930,-12.695,81.543
1584600331.595,-4.883,49.316,-2.441,27.344,52.246
1584600331.599,-18.066,49.316,-3.906,-34.668,31.250
1584600331.602,-5.371,43.945,4.883,-68.848,11.719
1584600331.606,15.625,46.387,7.812,-3.906,24.902
1584600331.610,20.996,55.664,10.742,59.570,36.133
1584600331.614,13.184,52.734,14.160,21.484,16.113
1584600331.618,-1.953,44.434,9.277,-55.176,41.992
1584600331.622,0.488,42.480,8.789,-28.320,19.043
1584600331.626,20.508,49.805,14.160,52.734,-2.930
1584600331.630,28.320,51.758,18.066,47.363,32.227
1584600331.634,19.531,41.504,19.531,-20.508,75.684
1584600331.638,16.113,24.902,20.508,-19.043,63.965
1584600331.642,37.598,23.438,22.461,62.988,29.785
1584600331.645,38.574,42.480,25.391,80.078,37.109
1584600331.649,10.742,42.480,19.531,4.395,22.949
1584600331.653,11.230,37.109,16.602,-25.879,47.852
1584600331.657,30.273,31.250,20.508,32.715,41.016
1584600331.661,36.621,29.297,24.902,76.660,8.789
1584600331.665,25.391,33.691,25.879,23.438,4.883
1584600331.669,19.531,33.203,26.367,-25.879,30.273
1584600331.673,30.762,37.598,23.926,22.949,84.961
1584600331.677,29.785,27.344,20.996,75.684,35.156
1584600331.681,21.484,20.996,23.438,42.480,52.734
1584600331.685,18.555,24.414,26.855,-19.043,32.715
1584600331.688,25.391,26.855,18.555,-2.930,-38.086
1584600331.692,35.156,28.809,15.625,65.430,5.371
1584600331.696,22.949,25.391,20.996,58.594,44.434
1584600331.700,9.766,35.156,21.484,-13.184,35.156
1584600331.704,20.996,40.527,24.414,-18.555,51.758
1584600331.708,41.504,31.738,31.738,62.500,46.875
1584600331.712,40.039,35.156,35.645,84.961,3.418
1584600331.716,17.090,23.438,27.344,3.418,38.574
1584600331.720,5.371,16.602,22.461,-34.668,59.082
1584600331.724,21.484,22.949,26.367,28.320,-4.395
1584600331.727,29.297,20.508,24.414,78.125,-19.043
1584600331.731,25.391,15.625,25.391,34.668,15.137
1584600331.735,13.184,22.949,29.785,-21.973,24.414
1584600331.739,26.367,30.273,29.297,28.809,12.695
1584600331.743,43.945,27.344,26.367,99.121,20.020
1584600331.747,24.414,32.227,26.855,56.152,26.855
1584600331.751,-3.418,24.414,26.367,-24.902,-2.441
1584600331.755,-3.418,13.184,31.250,-8.301,-17.578
1584600331.759,19.043,28.320,41.016,76.172,22.461
1584600331.763,16.602,21.484,39.062,72.754,33.691
1584600331.767,-1.953,8.789,27.344,-17.578,61.035
1584600331.770,-7.324,22.461,21.973,-49.805,70.801
1584600331.774,6.836,29.785,22.461,36.133,0.977
1584600331.778,10.254,20.996,18.066,67.383,-0.977
1584600331.782,-1.953,10.742,18.555,-3.418,59.082
1584600331.786,0.488,13.184,21.484,-41.504,84.961
1584600331.790,22.949,23.926,29.297,25.879,73.730
1584600331.794,28.809,21.973,31.738,83.496,9.766
1584600331.798,7.324,18.066,24.902,34.180,-6.348
1584600331.802,-1.465,22.461,24.902,-29.785,32.715
1584600331.806,9.766,18.066,27.344,0.488,25.391
1584600331.810,24.414,31.738,32.227,78.125,11.230
1584600331.813,26.855,34.668,34.668,60.547,47.363
1584600331.817,2.930,13.672,27.344,-23.926,75.684
1584600331.821,-5.859,9.277,18.555,-24.902,52.734
1584600331.825,17.090,13.672,21.973,54.688,41.992
1584600331.829,22.949,24.902,33.203,67.871,24.414
1584600331.833,3.906,28.809,36.621,-3.906,11.719
1584600331.837,7.812,22.461,38.086,-21.484,32.227
1584600331.841,25.391,23.438,30.762,49.805,11.719
1584600331.845,29.785,14.160,31.738,91.797,-20.508
1584600331.849,16.602,19.043,31.738,32.715,-23.926
1584600331.852,1.953,29.785,24.902,-27.832,-11.719
1584600331.856,14.648,18.555,33.203,29.785,14.648
1584600331.860,27.344,21.484,38.086,85.449,50.781
1584600331.864,19.531,34.180,34.668,34.180,63.965
1584600331.868,9.277,26.367,33.691,-26.855,24.414
1584600331.872,10.254,20.996,28.320,-2.441,18.555
1584600331.876,18.066,29.297,24.414,67.383,13.184
1584600331.880,20.020,28.809,25.391,55.176,0.488
1584600331.884,0.000,21.484,25.391,-22.461,-21.484
1584600331.888,-0.488,18.555,21.973,-27.832,4.395
1584600331.892,25.391,19.043,22.949,56.152,63.477
1584600331.895,28.809,22.461,30.273,78.613,28.809
1584600331.899,13.184,25.879,31.250,2.441,0.000
1584600331.903,12.207,30.762,29.297,-35.645,-11.719
1584600331.907,25.391,38.574,30.762,32.227,3.906
1584600331.911,24.902,30.762,28.320,73.730,14.648
1584600331.915,6.348,10.254,23.926,12.207,46.875
1584600331.919,-0.977,17.578,22.949,-39.062,36.133
1584600331.923,12.207,20.996,24.902,6.836,48.828
1584600331.927,11.230,16.113,24.414,66.406,67.383
1584600331.931,3.906,15.137,32.227,37.598,57.617
1584600331.935,2.930,15.137,41.016,-16.113,25.879
1584600331.938,24.902,20.020,38.086,28.809,-14.160
1584600331.942,57.617,33.691,36.621,109.863,-12.207
1584600331.946,33.203,37.109,30.273,65.918,30.762
1584600331.950,-16.602,33.203,18.066,-50.293,4.395
1584600331.954,-8.301,35.645,15.625,-51.270,13.672
1584600331.958,22.461,33.203,21.484,48.828,31.738
1584600331.962,23.438,33.203,20.996,71.777,15.137
1584600331.966,9.277,35.645,15.137,-3.906,38.086
1584600331.970,12.207,37.109,14.160,-37.109,20.508
1584600331.974,32.227,41.016,17.090,30.273,32.715
1584600331.977,38.574,46.875,17.090,74.219,52.734
1584600331.981,26.367,46.875,11.230,19.043,51.270
1584600331.985,22.461,43.457,10.742,-38.086,14.648
1584600331.989,38.574,49.805,13.184,11.230,-17.090
1584600331.993,58.594,58.105,14.648,88.867,4.395
1584600331.997,46.387,56.152,13.672,57.129,-32.227
1584600332.001,25.391,49.805,9.766,-19.043,-36.133
1584600332.005,47.852,52.734,9.277,0.488,43.457
1584600332.009,77.637,57.617,13.184,88.379,44.434
1584600332.013,73.242,57.617,20.996,97.168,51.270
1584600332.017,43.945,53.223,20.996,23.438,107.910
1584600332.020,52.246,52.246,13.672,6.836,106.445
1584600332.024,77.148,46.875,14.648,69.336,67.871
1584600332.028,62.988,44.922,15.625,92.285,57.129
1584600332.032,35.645,49.805,8.789,20.996,55.664
1584600332.036,39.551,48.828,10.254,-14.648,8.301
1584600332.040,63.477,56.641,17.090,52.246,19.043
1584600332.044,71.289,60.547,20.508,107.422,51.270
1584600332.048,54.199,57.617,22.461,62.012,2.930
1584600332.052,34.668,56.152,20.020,-9.277,-31.250
1584600332.056,45.898,52.734,15.137,18.555,9.277
1584600332.060,72.266,57.617,25.391,101.074,20.996
1584600332.063,63.477,60.547,34.180,84.473,-37.598
1584600332.067,32.227,44.434,19.043,-2.930,-27.832
1584600332.071,36.133,39.551,10.254,-4.395,11.230
1584600332.075,54.688,46.387,17.578,73.242,0.977
1584600332.079,51.270,49.805,19.043,82.520,4.883
1584600332.083,34.668,46.387,17.578,6.348,33.691
1584600332.087,26.855,36.133,18.066,-20.996,34.180
1584600332.091,41.992,43.945,21.973,49.316,6.348
1584600332.095,45.410,49.805,25.879,86.914,18.555
1584600332.099,28.809,48.828,27.344,30.762,30.762
1584600332.102,14.648,53.711,25.391,-20.508,53.223
1584600332.106,35.156,57.129,25.879,29.297,67.383
1584600332.110,51.758,49.805,27.832,102.051,14.160
1584600332.114,29.297,42.969,23.438,53.223,-0.488
1584600332.118,9.766,40.039,19.531,-29.297,0.977
1584600332.122,22.949,36.133,19.043,5.371,6.836
1584600332.126,39.062,44.434,21.973,84.961,94.727
1584600332.130,31.250,49.316,24.414,67.383,88.867
1584600332.134,10.742,42.969,24.414,-15.137,-3.906
1584600332.138,18.066,41.016,23.926,-17.578,30.762
1584600332.142,45.898,46.387,27.344,59.082,44.434
1584600332.145,38.574,44.434,33.203,73.730,13.184
1584600332.149,16.602,35.156,31.250,8.301,20.508
1584600332.153,8.789,35.645,25.391,-27.344,33.203
1584600332.157,20.508,42.480,24.902,37.598,25.879
1584600332.161,38.086,41.504,28.809,95.703,41.504
1584600332.165,24.414,38.574,30.762,39.062,44.434
1584600332.169,6.836,35.645,25.879,-23.926,41.016
1584600332.173,26.855,30.273,26.367,20.508,55.664
1584600332.177,39.062,39.551,32.227,86.426,25.879
1584600332.181,20.508,44.922,28.320,52.734,11.719
1584600332.185,3.418,38.086,22.949,-17.578,41.016
1584600332.188,13.672,39.062,24.414,-6.348,0.488
1584600332.192,37.109,42.969,27.832,68.848,14.160
1584600332.196,38.574,40.039,29.297,75.684,34.668
1584600332.200,10.254,30.273,23.926,-1.465,25.391
1584600332.204,11.230,26.855,26.855,-17.090,99.609
1584600332.208,31.250,42.969,31.250,62.500,55.176
1584600332.212,24.902,45.410,27.344,89.355,35.156
1584600332.216,6.836,33.203,23.438,16.602,67.383
1584600332.220,2.930,28.809,17.578,-30.273,30.273
1584600332.224,28.809,36.133,20.508,30.762,3.906
1584600332.227,39.551,38.574,26.367,84.473,-13.672
1584600332.231,20.020,35.645,23.926,34.668,13.672
1584600332.235,8.301,34.180,22.461,-29.785,29.297
1584600332.239,30.273,34.668,32.227,14.648,43.457
1584600332.243,47.363,32.715,35.645,92.773,62.012
1584600332.247,19.043,33.691,27.832,60.059,4.395
1584600332.251,6.348,33.691,30.762,-13.672,38.086
1584600332.255,23.926,21.973,30.762,-3.418,48.828
1584600332.259,33.203,29.785,25.879,69.824,28.320
1584600332.263,27.832,40.039,25.879,68.848,20.996
1584600332.267,15.625,27.832,24.902,-3.418,-15.137
1584600332.270,12.207,21.973,22.949,-18.066,-27.344
1584600332.274,26.855,31.738,30.273,57.617,16.113
1584600332.278,34.668,41.016,40.527,90.332,-8.789
1584600332.282,20.508,39.062,35.156,24.902,2.441
1584600332.286,3.906,31.250,25.391,-23.926,64.941
1584600332.290,17.090,33.203,28.320,30.273,38.086
1584600332.294,29.297,28.320,31.250,95.215,10.742
1584600332.298,13.672,21.484,27.832,48.340,9.277
1584600332.302,6.348,34.180,32.227,-16.602,0.488
1584600332.306,19.043,39.062,39.062,14.648,47.852
1584600332.310,21.973,31.250,34.180,81.543,45.410
1584600332.313,16.602,32.715,30.762,57.129,27.832
1584600332.317,6.836,31.738,31.250,-15.137,43.945
1584600332.321,4.395,29.785,29.785,-20.020,57.617
1584600332.325,23.926,32.227,30.273,44.922,70.312
1584600332.329,30.762,26.855,28.320,69.824,35.156
1584600332.333,12.207,22.949,25.879,2.441,-13.672
1584600332.337,15.625,23.926,30.273,-22.461,-12.695
1584600332.341,44.922,29.785,34.668,59.082,1.953
1584600332.345,25.879,31.250,29.297,85.449,-2.930
1584600332.349,-2.441,24.414,30.762,10.742,-20.020
1584600332.352,10.254,21.484,36.621,-28.809,-37.109
1584600332.356,30.273,25.391,34.180,21.484,-29.297
1584600332.360,30.273,36.133,36.621,79.102,26.367
1584600332.364,11.230,30.273,32.227,45.410,57.129
1584600332.368,-3.418,22.949,24.902,-29.785,81.055
1584600332.372,11.719,35.645,30.273,-10.742,76.172
1584600332.376,24.414,37.109,31.738,63.965,30.273
1584600332.380,14.160,26.855,25.879,56.641,88.379
1584600332.384,6.836,21.484,23.438,-11.230,57.129
1584600332.388,14.160,23.926,29.297,-16.113,-43.945
1584600332.392,23.438,30.762,33.691,66.406,11.230
1584600332.395,21.973,30.273,29.297,86.914,52.246
1584600332.399,7.812,28.320,25.879,2.930,58.594
1584600332.403,6.348,26.855,32.227,-29.785,14.648
1584600332.407,22.461,33.203,33.203,35.156,-15.625
1584600332.411,29.297,37.598,33.691,83.984,34.180
1584600332.415,18.555,31.738,34.180,29.297,20.508
1584600332.419,1.465,34.668,26.855,-34.180,14.648
1584600332.423,8.789,36.133,23.438,6.348,62.988
1584600332.427,23.926,31.738,31.738,67.871,76.660
1584600332.431,14.160,32.227,35.645,39.551,53.711
1584600332.435,2.441,29.785,28.809,-24.414,52.734
1584600332.438,10.742,40.039,31.250,-3.906,76.660
1584600332.442,19.531,43.945,31.738,66.895,27.344
1584600332.446,14.648,34.668,28.320,64.941,26.855
1584600332.450,1.465,31.250,30.273,-5.371,73.730
1584600332.454,0.000,24.902,31.738,-26.367,62.500
1584600332.458,15.137,18.066,35.156,41.992,48.828
1584600332.462,17.090,27.832,32.715,63.965,17.090
1584600332.466,-6.836,34.180,25.879,-4.395,-20.020
1584600332.470,-15.137,29.785,25.879,-39.062,23.438
1584600332.474,13.184,32.715,29.297,18.066,49.805
1584600332.477,23.926,36.133,33.691,63.965,48.828
1584600332.481,4.395,29.785,32.227,23.926,30.762
1584600332.485,-0.488,27.832,34.180,-29.297,29.297
1584600332.489,18.555,31.250,38.574,2.441,16.602
1584600332.493,24.902,32.715,36.621,73.730,-0.488
1584600332.497,14.648,32.715,31.250,49.805,30.762
1584600332.501,1.465,32.227,26.367,-30.273,57.617
1584600332.505,14.648,38.574,21.484,-16.113,20.020
1584600332.509,59.082,47.363,25.391,81.543,7.812
1584600332.513,60.547,35.645,40.039,100.098,42.969
1584600332.517,0.000,15.137,43.457,2.930,56.641
1584600332.520,-14.648,15.625,43.457,-33.203,83.984
1584600332.524,23.438,20.996,49.805,55.176,13.672
1584600332.528,22.949,19.043,46.387,88.867,-37.109
1584600332.532,-5.371,15.137,47.363,13.672,20.020
1584600332.536,-12.695,11.230,48.828,-29.785,26.367
1584600332.540,8.789,13.672,52.246,37.598,50.293
1584600332.544,17.090,11.230,55.664,100.586,74.707
1584600332.548,-7.812,3.906,53.711,51.270,57.129
1584600332.552,-21.973,4.395,52.734,-21.973,31.738
1584600332.556,1.465,6.836,59.570,9.277,-3.418
1584600332.560,20.996,5.859,64.453,92.285,40.527
1584600332.563,1.465,-0.977,59.570,72.754,89.844
1584600332.567,-17.090,-4.395,57.129,-7.812,26.855
1584600332.571,-13.184,-0.977,59.570,-1.953,-2.441
1584600332.575,3.418,1.953,62.500,77.148,30.762
1584600332.579,4.395,1.953,66.895,90.332,25.879
1584600332.583,-11.230,-1.465,64.453,14.160,-21.973
1584600332.587,-7.324,0.488,64.941,-6.348,-6.836
1584600332.591,14.648,4.883,68.848,68.848,3.906
1584600332.595,22.461,9.277,65.918,102.539,6.836
1584600332.599,0.977,9.766,60.547,42.969,0.977
1584600332.602,-9.766,4.883,57.617,-6.836,-65.430
1584600332.606,10.254,7.324,50.293,34.180,-39.551
1584600332.610,14.160,15.137,45.410,87.891,50.293
1584600332.614,0.488,13.672,51.758,56.152,68.848
1584600332.618,-4.883,12.207,55.664,-7.324,80.566
1584600332.622,7.812,19.043,56.152,21.484,85.938
1584600332.626,17.090,20.020,51.270,92.285,49.316
1584600332.630,13.672,28.809,50.293,79.102,41.504
1584600332.634,5.859,24.902,53.223,7.812,24.902
1584600332.638,10.742,21.484,47.852,0.977,-2.441
1584600332.642,29.785,24.414,47.363,78.613,9.277
1584600332.645,21.973,8.789,47.852,93.262,23.438
1584600332.649,-3.418,10.742,42.480,18.066,17.578
1584600332.653,0.488,20.508,40.527,-20.508,26.855
1584600332.657,22.949,25.391,45.410,43.457,9.766
1584600332.661,27.344,32.715,43.945,93.750,18.555
1584600332.665,25.391,28.809,48.828,48.828,32.715
1584600332.669,20.508,25.879,51.758,-6.348,-2.930
1584600332.673,35.645,25.391,47.852,36.133,17.578
1584600332.677,55.664,10.742,53.223,111.328,45.410
1584600332.681,21.484,23.438,41.992,66.895,-13.672
1584600332.685,-7.324,44.434,29.785,-20.508,27.832
1584600332.688,21.484,41.504,45.898,14.160,55.176
1584600332.692,50.293,33.203,52.246,103.027,15.625
1584600332.696,28.809,31.738,37.598,85.938,40.527
1584600332.700,-0.488,27.344,35.156,-7.812,12.207
1584600332.704,16.113,15.625,40.039,-1.953,-10.742
1584600332.708,50.781,18.066,46.387,98.145,27.832
1584600332.712,17.578,38.086,42.480,85.938,14.648
1584600332.716,-28.809,45.410,36.133,-20.020,-7.324
1584600332.720,-6.836,31.250,53.711,-35.645,22.949
1584600332.724,18.555,31.250,50.293,35.156,-1.465
1584600332.727,10.254,50.781,28.809,62.500,-27.344
1584600332.731,-16.113,34.668,31.250,-9.277,37.109
1584600332.735,-52.734,7.324,33.203,-87.891,73.242
1584600332.739,-29.785,17.090,43.457,-27.344,25.391
1584600332.743,-11.230,50.781,43.457,47.363,13.672
1584600332.747,-53.223,37.598,23.438,-14.648,18.555
1584600332.751,-80.078,18.555,23.438,-104.004,-27.832
1584600332.755,-72.266,34.668,27.344,-94.238,5.859
1584600332.759,-60.547,31.738,18.555,-19.043,77.637
1584600332.763,-57.617,17.578,19.043,-2.441,94.238
1584600332.767,-51.270,16.113,27.832,-61.035,78.613
1584600332.770,-34.668,22.461,33.691,-62.988,12.695
1584600332.774,-15.137,26.855,32.227,19.531,42.969
1584600332.778,-15.625,26.855,30.273,41.504,91.797
1584600332.782,-28.809,22.461,31.250,-23.926,0.977
1584600332.786,-19.531,30.273,35.645,-56.641,0.000
1584600332.790,5.371,39.551,36.621,2.930,75.195
1584600332.794,13.184,31.738,38.574,65.918,64.941
1584600332.798,1.465,29.297,40.527,34.668,41.504
1584600332.802,-5.859,28.809,37.598,-32.227,23.926
1584600332.806,15.625,27.832,36.133,-4.883,-11.230
1584600332.810,24.902,28.809,43.457,83.008,-16.602
1584600332.813,3.418,22.949,41.504,63.965,39.062
1584600332.817,-10.742,21.973,36.133,-22.461,18.555
1584600332.821,2.441,24.902,36.621,-18.066,4.395
1584600332.825,27.832,26.855,41.504,71.289,37.109
1584600332.829,20.996,22.949,42.969,87.891,27.832
1584600332.833,0.488,31.250,37.598,3.418,41.504
1584600332.837,4.395,40.527,39.062,-19.531,65.430
1584600332.841,22.461,40.039,42.480,56.152,48.340
1584600332.845,23.438,41.992,38.574,91.309,12.207
1584600332.849,0.977,21.973,29.785,16.113,-14.160
1584600332.852,-11.230,11.719,29.785,-47.363,6.348
1584600332.856,2.441,26.855,33.203,17.090,65.430
1584600332.860,28.320,33.691,34.668,89.355,62.012
1584600332.864,14.648,23.926,27.832,46.875,19.531
1584600332.868,-10.254,31.250,25.391,-22.461,7.324
1584600332.872,6.836,41.992,31.738,4.395,22.949
1584600332.876,25.391,26.367,32.227,84.473,32.715
1584600332.880,16.113,20.508,31.250,73.242,36.621
1584600332.884,0.977,29.785,28.809,-16.113,13.184
1584600332.888,11.230,29.297,31.250,-25.879,-27.832
1584600332.892,25.391,21.973,39.062,60.547,5.371
1584600332.895,53.711,36.621,55.176,113.281,51.270
1584600332.899,29.785,44.922,49.316,33.203,39.551
1584600332.903,-26.367,40.527,20.996,-60.059,7.812
1584600332.907,-20.996,45.898,18.555,-8.789,45.898
1584600332.911,-1.465,40.039,29.297,58.105,50.293
1584600332.915,0.977,33.691,38.086,22.461,39.062
1584600332.919,-19.043,31.250,23.926,-57.129,30.762
1584600332.923,-20.020,35.156,13.672,-30.762,-4.395
1584600332.927,6.836,39.062,23.926,59.082,35.156
1584600332.931,0.488,41.016,29.785,29.297,37.109
1584600332.935,-23.438,27.832,29.297,-54.199,25.391
1584600332.938,-20.508,12.695,21.484,-39.062,50.781
1584600332.942,-1.953,24.414,21.973,40.527,12.207
1584600332.946,0.977,35.645,27.344,51.270,71.289
1584600332.950,-19.043,23.926,19.531,-25.391,60.059
1584600332.954,-7.812,18.066,19.043,-41.992,2.441
1584600332.958,24.902,35.156,29.297,48.340,14.160
1584600332.962,24.902,42.480,30.762,80.566,-11.230
1584600332.966,6.348,32.227,28.320,4.883,8.789
1584600332.970,10.254,24.414,32.715,-36.133,41.992
1584600332.974,23.926,19.043,33.203,26.855,45.898
1584600332.977,28.809,32.227,34.668,81.055,41.504
1584600332.981,25.391,43.945,38.086,34.180,33.691
1584600332.985,18.066,40.527,38.086,-22.461,49.805
1584600332.989,22.461,34.180,34.668,11.719,-5.371
1584600332.993,41.992,41.992,35.156,87.891,22.461
1584600332.997,38.086,30.273,34.668,67.871,42.969
1584600333.001,4.395,9.277,28.320,-29.297,8.301
1584600333.005,3.418,17.090,25.879,-19.043,21.973
1584600333.009,29.785,27.832,27.832,72.266,-5.859
1584600333.013,29.297,20.020,33.203,71.777,-9.277
1584600333.017,7.324,16.602,32.715,-6.836,37.109
1584600333.020,2.441,28.320,36.133,-22.949,38.086
1584600333.024,23.926,35.645,39.062,55.176,-25.391
1584600333.028,18.555,28.809,30.273,77.637,-37.598
1584600333.032,6.836,21.973,33.203,16.602,-13.672
1584600333.036,11.719,19.531,41.016,-18.555,66.895
1584600333.040,18.066,19.043,33.203,28.320,83.008
1584600333.044,30.762,30.762,31.250,86.914,54.199
1584600333.048,20.996,29.785,32.715,44.434,34.668
1584600333.052,10.254,13.184,34.180,-23.438,48.340
1584600333.056,23.926,5.371,37.109,13.184,54.199
1584600333.060,41.504,20.508,41.016,89.355,28.320
1584600333.063,28.320,33.203,37.598,62.500,72.754
1584600333.067,-3.418,13.672,27.832,-23.926,60.547
1584600333.071,1.953,3.906,30.273,-19.043,38.574
1584600333.075,21.973,15.137,33.203,59.082,6.836
1584600333.079,20.996,20.020,32.715,76.172,33.691
1584600333.083,-1.465,17.090,31.250,4.883,66.406
1584600333.087,5.371,24.902,33.203,-21.973,11.719
1584600333.091,41.016,27.832,40.527,52.246,12.207
1584600333.095,41.504,31.250,36.621,88.867,1.953
1584600333.099,0.488,11.719,23.438,19.043,-0.488
1584600333.102,-14.648,-5.371,20.508,-45.898,12.207
1584600333.106,14.648,19.531,29.785,9.766,6.836
1584600333.110,33.203,18.555,35.645,85.449,-12.207
1584600333.114,18.066,1.953,30.762,47.363,39.551
1584600333.118,7.812,17.578,28.809,-31.250,10.742
1584600333.122,32.715,41.504,48.828,5.859,26.855
1584600333.126,38.574,35.156,46.875,94.238,103.516
1584600333.130,24.902,21.973,28.809,79.590,33.691
1584600333.134,4.395,21.484,25.391,-15.137,22.949
1584600333.138,-6.836,20.020,22.461,-41.504,32.715
1584600333.142,14.648,29.785,23.438,39.551,-14.648
1584600333.145,18.555,25.391,24.902,61.523,70.312
1584600333.149,12.207,14.648,35.645,0.488,65.430
1584600333.153,17.578,31.738,45.898,-18.066,-16.113
1584600333.157,15.137,31.250,27.832,30.273,38.574
1584600333.161,20.020,12.695,22.949,72.754,86.426
1584600333.165,18.555,12.695,31.250,20.020,75.684
1584600333.169,6.836,21.973,26.855,-43.457,28.320
1584600333.173,13.672,27.832,25.879,7.812,-18.555
1584600333.177,25.391,35.156,28.320,81.055,-4.395
1584600333.181,19.531,31.738,22.461,45.898,27.832
1584600333.185,4.883,17.090,21.973,-24.902,92.773
1584600333.188,20.508,20.508,34.180,0.488,52.734
1584600333.192,38.086,34.180,35.645,85.449,46.387
1584600333.196,13.672,29.785,21.973,69.336,80.566
1584600333.200,-3.906,25.879,20.996,-12.207,47.363
1584600333.204,17.578,33.203,36.621,-10.742,46.387
1584600333.208,36.621,30.762,41.992,70.312,40.039
1584600333.212,30.273,16.113,34.180,91.797,20.020
1584600333.216,9.277,11.719,31.738,12.695,42.480
1584600333.220,2.441,20.508,33.203,-36.133,7.812
1584600333.224,20.020,21.484,29.297,20.996,2.441
1584600333.227,23.926,22.461,22.461,72.754,-22.461
1584600333.231,13.184,25.391,23.438,27.344,-30.273
1584600333.235,0.977,24.414,27.832,-38.086,-31.250
1584600333.239,14.160,26.367,35.156,7.324,-4.395
1584600333.243,27.832,23.438,36.133,86.914,43.457
1584600333.247,26.855,25.391,38.086,66.895,55.176
1584600333.251,10.254,23.438,40.527,-8.789,41.016
1584600333.255,1.953,21.484,38.574,-6.836,16.113
1584600333.259,20.020,27.344,37.109,74.219,44.434
1584600333.263,13.184,19.531,34.180,76.172,43.945
1584600333.267,-14.648,7.324,27.832,-9.277,23.926
1584600333.270,-5.371,14.648,32.715,-32.227,-2.930
1584600333.274,23.926,32.715,41.992,45.898,10.742
1584600333.278,26.855,27.832,37.109,85.449,54.688
1584600333.282,24.902,22.461,41.992,30.762,20.996
1584600333.286,23.926,25.391,44.922,-16.113,-8.301
1584600333.290,15.625,21.484,30.762,24.902,31.738
1584600333.294,17.578,22.461,25.391,88.379,25.879
1584600333.298,16.113,38.574,31.738,51.758,13.184
1584600333.302,0.000,28.809,34.180,-26.367,86.914
1584600333.306,7.324,20.020,35.156,-0.977,36.621
1584600333.310,24.902,35.156,36.133,81.055,33.691
1584600333.313,17.578,31.738,34.668,60.547,105.469
1584600333.317,10.254,28.320,36.133,-18.555,18.555
1584600333.321,24.902,28.809,40.039,-7.324,-13.672
1584600333.325,37.598,38.574,41.016,71.777,33.691
1584600333.329,26.855,47.852,39.062,80.566,-12.695
1584600333.333,4.395,27.832,32.715,0.488,-15.625
1584600333.337,0.488,17.578,25.391,-29.785,50.293
1584600333.341,22.949,22.461,29.785,42.480,36.621
1584600333.345,26.367,29.297,31.738,86.426,19.531
1584600333.349,13.672,31.250,33.691,30.762,38.086
1584600333.352,18.066,32.227,42.969,-18.066,20.996
1584600333.356,17.578,37.598,42.969,31.250,21.973
1584600333.360,16.602,28.809,36.133,88.379,14.648
1584600333.364,12.207,17.578,30.762,48.828,50.781
1584600333.368,3.906,25.879,31.250,-20.996,51.758
1584600333.372,18.555,39.551,38.086,-0.488,-1.465
1584600333.376,25.879,36.621,36.621,72.266,28.320
1584600333.380,7.324,29.297,29.297,62.012,31.250
1584600333.384,-11.230,23.438,26.855,-22.461,39.062
1584600333.388,-0.488,30.273,29.297,-26.367,17.090
1584600333.392,41.016,41.992,28.809,61.035,21.484
1584600333.395,66.895,45.410,40.527,104.004,64.941
1584600333.399,35.645,37.109,49.805,35.156,92.773
1584600333.403,-14.648,30.762,34.668,-43.945,94.238
1584600333.407,-3.418,26.367,30.762,10.742,41.016
1584600333.411,27.832,26.367,44.434,87.402,12.695
1584600333.415,11.719,25.391,45.410,32.227,2.930
1584600333.419,-10.742,19.043,36.621,-47.363,-11.719
1584600333.423,0.000,22.461,36.133,0.977,-6.348
1584600333.427,15.137,17.578,40.039,80.566,-2.930
1584600333.431,12.695,13.672,42.480,47.852,8.301
1584600333.435,-8.789,20.020,47.852,-21.973,39.551
1584600333.438,-5.859,15.625,50.293,-6.836,55.176
1584600333.442,15.625,18.066,50.293,71.777,14.648
1584600333.446,21.484,9.277,51.270,77.637,6.836
1584600333.450,9.277,3.906,42.480,-5.859,31.738
1584600333.454,4.395,20.020,36.133,-26.855,-20.020
1584600333.458,19.043,31.738,41.992,54.688,7.324
1584600333.462,20.996,40.039,43.457,89.844,29.785
1584600333.466,4.883,31.250,41.016,29.785,42.969
1584600333.470,-0.488,20.508,40.039,-10.254,29.785
1584600333.474,14.648,21.484,37.598,45.410,53.223
1584600333.477,22.949,28.809,40.039,97.656,73.730
1584600333.481,14.160,33.203,47.852,52.246,30.762
1584600333.485,6.348,29.785,40.527,-20.508,35.156
1584600333.489,21.484,36.621,34.180,12.207,45.410
1584600333.493,37.598,32.715,38.574,88.379,41.992
1584600333.497,26.855,29.785,42.969,65.918,29.785
1584600333.501,5.371,43.945,43.945,0.000,51.270
1584600333.505,0.000,34.180,30.273,1.465,28.809
1584600333.509,14.648,32.715,30.762,77.148,46.387
1584600333.513,23.926,39.551,39.062,92.773,80.078
1584600333.517,6.348,30.762,31.250,12.207,29.785
1584600333.520,0.977,28.320,24.414,-19.043,7.812
1584600333.524,30.762,40.039,31.738,60.059,26.367
1584600333.528,37.598,37.109,34.668,100.098,46.875
1584600333.532,11.230,29.785,29.785,37.109,73.730
1584600333.536,5.859,35.156,29.297,-15.137,1.465
1584600333.540,27.344,30.762,32.227,29.297,-18.555
1584600333.544,31.738,36.133,35.645,96.191,34.180
1584600333.548,16.602,26.855,33.691,58.105,71.777
1584600333.552,-4.395,26.367,23.438,-26.855,56.152
1584600333.556,0.488,57.129,25.879,1.953,17.578
1584600333.560,30.273,52.734,38.086,90.332,11.719
1584600333.563,27.344,35.645,35.156,76.660,45.898
1584600333.567,-7.812,32.715,20.508,-17.090,54.199
1584600333.571,-5.859,30.762,18.555,-25.879,27.344
1584600333.575,26.367,38.086,30.273,69.336,22.949
1584600333.579,32.715,34.668,33.203,91.309,9.277
1584600333.583,8.789,15.625,30.273,15.625,12.207
1584600333.587,0.000,20.996,28.320,-20.020,42.480
1584600333.591,22.461,27.832,28.809,43.945,27.832
1584600333.595,34.180,22.949,34.668,94.727,30.762
1584600333.599,15.625,20.020,29.785,28.809,25.391
1584600333.602,9.277,24.414,27.832,-26.855,3.906
1584600333.606,30.273,47.363,31.250,36.621,2.441
1584600333.610,31.738,49.805,27.344,92.285,-2.930
1584600333.614,17.578,20.020,26.855,39.551,13.184
1584600333.618,5.859,10.742,21.484,-31.738,11.230
1584600333.622,5.859,20.020,17.090,-9.766,53.711
1584600333.626,30.762,31.738,28.320,75.684,62.500
1584600333.630,35.156,31.250,35.156,79.102,-8.301
1584600333.634,19.043,15.137,32.227,14.648,8.789
1584600333.638,18.066,21.484,32.227,1.465,55.664
1584600333.642,8.301,32.227,26.367,42.969,2.441
1584600333.645,3.906,28.320,26.367,55.176,13.184
1584600333.649,-4.883,19.531,26.367,-1.953,20.020
1584600333.653,-4.395,28.320,28.809,-30.273,-50.781
1584600333.657,25.879,40.527,39.551,45.898,-41.992
1584600333.661,23.926,25.879,28.320,85.449,-32.715
1584600333.665,2.930,10.742,17.578,19.043,-12.207
1584600333.669,-3.418,20.508,22.949,-34.668,18.555
1584600333.673,7.324,30.273,19.531,4.883,26.367
1584600333.677,9.766,20.996,15.137,67.871,39.551
1584600333.681,0.488,19.043,21.484,47.363,61.035
1584600333.685,-9.766,27.344,23.926,-24.414,18.066
1584600333.688,-1.953,29.785,18.066,-22.461,17.090
1584600333.692,29.785,34.668,24.414,67.871,35.156
1584600333.696,25.879,31.738,27.832,83.496,62.012
1584600333.700,-0.488,20.996,26.367,1.465,66.406
1584600333.704,9.277,24.902,28.809,-15.137,7.812
1584600333.708,32.715,33.203,30.273,57.617,-31.738
1584600333.712,25.879,30.762,27.344,84.473,-25.879
1584600333.716,4.883,23.926,23.926,17.090,-24.902
1584600333.720,8.301,28.809,24.414,-21.973,-0.488
1584600333.724,15.625,30.762,21.973,33.691,2.930
1584600333.727,27.832,26.855,26.855,88.379,37.598
1584600333.731,20.020,17.090,28.809,41.504,36.133
1584600333.735,3.418,21.973,23.438,-34.668,7.812
1584600333.739,17.578,35.645,21.973,0.977,44.434
1584600333.743,37.598,37.598,32.227,88.867,57.129
1584600333.747,24.902,27.832,27.344,63.965,41.992
1584600333.751,4.883,11.230,15.137,-23.926,-43.945
1584600333.755,13.672,16.113,23.926,-16.113,-70.801
1584600333.759,27.832,30.762,27.832,68.359,-8.301
1584600333.763,26.855,38.574,32.227,81.055,25.391
1584600333.767,19.531,35.645,33.691,2.930,-13.184
1584600333.770,24.414,23.926,30.273,-21.484,-20.020
1584600333.774,34.180,20.996,34.668,51.758,13.184
1584600333.778,29.785,30.762,30.762,77.637,0.000
1584600333.782,8.789,33.203,26.855,7.812,50.293
1584600333.786,-12.207,25.879,24.902,-40.039,88.867
1584600333.790,2.930,20.020,25.391,16.602,61.523
1584600333.794,20.508,20.996,29.297,79.102,25.391
1584600333.798,8.789,26.855,30.762,40.039,49.316
1584600333.802,-2.930,22.461,26.855,-28.320,76.172
1584600333.806,8.789,21.484,24.902,-4.395,25.879
1584600333.810,29.297,20.508,35.156,78.125,5.371
1584600333.813,23.926,9.277,37.109,74.219,36.621
1584600333.817,3.906,13.672,33.691,-5.859,31.250
1584600333.821,0.488,27.344,28.809,-28.809,14.160
1584600333.825,5.371,25.879,21.484,33.203,-3.906
1584600333.829,8.301,24.902,25.391,63.965,8.789
1584600333.833,-3.906,18.066,21.484,-8.301,9.766
1584600333.837,-9.277,21.973,15.137,-47.852,6.836
1584600333.841,17.090,33.203,27.344,35.645,-0.488
1584600333.845,27.832,21.973,32.227,88.867,26.367
1584600333.849,11.719,19.531,26.855,30.273,18.555
1584600333.852,6.836,29.785,24.902,-29.785,-5.859
1584600333.856,26.367,27.832,24.902,18.066,40.039
1584600333.860,40.039,21.973,27.344,96.191,27.344
1584600333.864,21.484,10.254,21.484,49.316,44.434
1584600333.868,3.418,18.066,22.949,-34.668,47.852
1584600333.872,12.695,28.809,26.367,-12.695,32.227
1584600333.876,22.461,27.344,21.973,67.383,41.992
1584600333.880,16.602,33.691,22.949,67.383,16.602
1584600333.884,0.000,27.344,18.066,-13.672,26.855
1584600333.888,9.766,29.297,22.461,-21.484,62.500
1584600333.892,38.086,38.086,34.668,64.453,65.430
1584600333.895,42.480,43.945,36.133,92.773,33.203
1584600333.899,21.973,38.574,31.250,18.066,57.617
1584600333.903,8.301,26.367,24.414,-30.762,60.547
1584600333.907,20.508,22.461,24.414,24.902,57.617
1584600333.911,32.227,17.578,29.297,74.219,53.223
1584600333.915,11.719,14.160,28.809,17.578,19.531
1584600333.919,2.441,27.344,30.273,-37.109,60.547
1584600333.923,20.508,35.156,32.715,8.789,81.055
1584600333.927,29.785,22.461,28.320,72.754,39.551
1584600333.931,18.555,15.137,26.855,41.504,47.852
1584600333.935,10.254,16.113,29.785,-32.715,16.113
1584600333.938,9.277,22.949,26.367,-22.461,51.758
1584600333.942,15.625,33.203,24.414,55.664,19.531
1584600333.946,11.719,33.203,23.438,57.129,-64.453
1584600333.950,-0.488,32.227,21.484,-24.902,-12.695
1584600333.954,9.277,30.273,24.414,-36.133,3.906
1584600333.958,29.297,36.133,29.297,46.875,21.973
1584600333.962,31.738,31.250,27.832,74.219,31.250
1584600333.966,8.789,20.996,25.391,5.371,14.648
1584600333.970,-6.348,24.902,25.879,-41.992,31.738
1584600333.974,8.301,25.391,24.414,6.836,14.160
1584600333.977,19.531,25.391,27.832,65.918,22.949
1584600333.981,10.742,25.879,32.715,29.785,7.812
1584600333.985,-2.441,18.555,31.738,-33.203,5.859
1584600333.989,13.184,29.785,29.785,0.000,25.879
1584600333.993,28.809,50.781,25.879,80.078,17.578
1584600333.997,19.531,49.805,21.484,55.664,2.930
1584600334.001,12.695,37.109,28.809,-27.344,29.297
1584600334.005,6.348,24.414,33.691,-21.484,45.898
1584600334.009,9.277,23.438,30.762,49.805,12.695
1584600334.013,4.883,22.949,28.320,57.129,32.715
1584600334.017,-12.207,27.344,26.855,-14.648,59.082
1584600334.020,-4.395,35.645,30.273,-39.551,59.570
1584600334.024,22.461,43.945,38.574,41.992,74.219
1584600334.028,30.273,42.969,41.992,91.797,30.762
1584600334.032,10.742,35.156,38.574,27.344,33.203
1584600334.036,-4.883,31.250,30.273,-33.203,64.453
1584600334.040,15.625,30.273,25.391,20.020,-32.227
1584600334.044,30.762,29.785,26.855,86.426,-37.598
1584600334.048,8.789,31.738,26.367,37.598,28.320
1584600334.052,-6.348,25.879,24.414,-39.062,52.734
1584600334.056,5.859,28.809,27.832,-10.254,29.297
1584600334.060,20.020,36.133,33.691,72.266,-29.297
1584600334.063,18.555,31.738,36.133,56.641,-1.953
1584600334.067,10.254,29.785,40.039,-20.020,16.602
1584600334.071,26.367,42.969,45.898,-9.766,46.387
1584600334.075,35.156,42.969,39.062,66.895,58.594
1584600334.079,14.648,28.809,26.367,73.730,50.781
1584600334.083,-7.324,20.508,24.902,0.977,41.504
1584600334.087,-9.277,20.996,23.926,-24.902,32.715
1584600334.091,9.766,28.320,24.414,43.945,68.359
1584600334.095,22.949,26.855,28.320,85.449,8.789
1584600334.099,10.254,25.879,27.344,27.344,-52.246
1584600334.102,7.812,31.250,36.133,-19.043,9.766
1584600334.106,26.855,31.738,39.551,23.926,63.477
1584600334.110,24.414,34.180,26.367,70.312,18.066
1584600334.114,12.695,32.227,26.855,42.480,-22.461
1584600334.118,0.488,19.043,27.344,-21.484,29.297
1584600334.122,10.254,22.461,22.949,-6.348,65.918
1584600334.126,27.344,34.668,23.438,70.312,80.566
1584600334.130,16.602,29.785,25.879,68.359,37.109
1584600334.134,11.230,32.715,33.203,5.371,17.090
1584600334.138,10.254,29.297,27.344,-8.301,6.836
1584600334.142,17.578,24.902,26.367,61.523,16.113
1584600334.145,26.855,37.109,33.691,90.332,92.773
1584600334.149,15.137,34.180,25.391,12.207,64.941
1584600334.153,8.301,25.391,23.926,-37.598,61.523
1584600334.157,30.273,20.996,31.738,35.156,91.309
1584600334.161,55.176,18.066,37.109,110.840,40.039
1584600334.165,48.340,25.391,35.156,67.871,52.246
1584600334.169,11.719,34.668,24.414,-27.832,31.738
1584600334.173,3.906,34.668,16.602,-17.090,-6.348
1584600334.177,22.461,37.598,20.020,61.035,31.738
1584600334.181,19.043,36.133,21.973,43.457,29.297
1584600334.185,8.301,31.738,20.996,-29.785,24.902
1584600334.188,16.113,30.273,21.484,-22.461,38.086
1584600334.192,34.668,42.969,25.391,54.688,35.156
1584600334.196,33.203,43.457,27.344,55.664,51.758
1584600334.200,18.066,31.738,27.832,-18.555,25.391
1584600334.204,20.020,36.621,31.250,-32.715,7.812
1584600334.208,22.949,38.574,23.438,40.039,10.742
1584600334.212,26.855,36.621,22.949,79.102,35.156
1584600334.216,17.090,29.297,27.344,15.137,46.875
1584600334.220,5.859,26.855,23.438,-34.668,38.574
1584600334.224,28.320,29.785,26.855,22.949,45.898
1584600334.227,42.969,31.738,31.738,83.496,66.406
1584600334.231,29.297,42.480,25.879,35.645,120.117
1584600334.235,19.043,41.016,26.367,-25.879,67.871
1584600334.239,33.203,42.480,31.250,14.648,-23.438
1584600334.243,41.992,49.805,24.414,73.730,39.062
1584600334.247,23.926,40.527,20.020,43.945,12.207
1584600334.251,12.207,35.156,19.531,-26.855,-41.016
1584600334.255,27.344,39.551,20.996,-20.508,-1.953
1584600334.259,41.016,33.203,25.879,62.500,-19.043
1584600334.263,38.574,28.809,27.832,79.590,-26.855
1584600334.267,28.320,40.039,29.785,12.695,36.133
1584600334.270,24.414,42.969,28.320,-20.508,17.578
1584600334.274,27.344,39.062,16.113,37.598,66.406
1584600334.278,33.203,35.645,16.602,79.590,104.980
1584600334.282,26.367,29.785,20.508,22.461,78.613
1584600334.286,19.531,28.809,21.484,-30.762,62.012
1584600334.290,35.156,40.527,30.762,21.484,2.930
1584600334.294,36.621,47.363,32.227,84.473,1.465
1584600334.298,15.137,37.109,25.391,43.945,55.176
1584600334.302,1.953,28.809,20.996,-36.621,102.539
1584600334.306,17.090,43.457,26.367,-8.789,95.703
1584600334.310,32.227,36.621,29.785,82.031,3.418
1584600334.313,18.555,17.578,20.996,61.523,-5.859
1584600334.317,2.930,27.832,23.438,-23.926,8.301
1584600334.321,8.789,26.367,26.367,-26.855,2.441
1584600334.325,39.062,33.203,32.715,66.406,20.020
1584600334.329,36.621,46.387,36.621,92.773,19.043
1584600334.333,1.953,32.227,28.809,7.812,46.875
1584600334.337,-2.441,20.996,26.367,-39.551,59.082
1584600334.341,27.344,23.438,34.668,29.297,84.961
1584600334.345,37.598,29.297,36.621,81.543,58.105
1584600334.349,14.160,27.344,24.902,11.230,46.875
1584600334.352,2.930,26.855,26.855,-50.293,19.531
1584600334.356,24.414,31.250,24.902,12.695,-4.883
1584600334.360,39.551,23.438,21.484,92.285,25.879
1584600334.364,33.691,35.645,32.715,62.988,30.273
1584600334.368,14.160,43.457,29.785,-21.484,6.836
1584600334.372,15.625,39.062,26.855,-6.836,-6.348
1584600334.376,37.598,43.457,36.133,78.125,38.574
1584600334.380,35.645,35.156,28.809,67.871,21.484
1584600334.384,30.273,24.902,14.160,-7.812,-9.277
1584600334.388,39.062,27.344,19.043,-1.465,-23.926
1584600334.392,41.016,31.250,28.320,71.289,-34.668
1584600334.395,20.020,29.297,29.785,75.195,17.090
1584600334.399,0.488,28.809,29.785,10.742,1.465
1584600334.403,15.137,27.832,29.297,-19.531,-61.035
1584600334.407,29.297,29.785,31.250,47.363,-45.410
1584600334.411,23.926,31.250,32.715,97.656,13.672
1584600334.415,6.836,22.949,33.203,41.016,18.555
1584600334.419,-2.441,19.043,34.180,-22.949,-18.066
1584600334.423,19.043,20.020,36.133,20.508,3.906
1584600334.427,36.621,19.531,40.039,95.703,31.738
1584600334.431,30.273,29.785,42.969,76.660,62.012
1584600334.435,8.301,27.344,38.086,-1.465,88.867
1584600334.438,6.348,13.672,29.297,-7.324,46.387
1584600334.442,26.367,20.020,29.297,69.824,38.086
1584600334.446,29.297,22.949,35.645,83.984,72.266
1584600334.450,9.277,19.043,31.250,13.672,89.844
1584600334.454,12.207,26.367,30.273,-4.395,18.066
1584600334.458,26.855,28.320,32.715,57.617,3.906
1584600334.462,27.832,24.414,32.227,90.332,31.250
1584600334.466,13.672,27.344,33.203,31.738,27.344
1584600334.470,12.207,30.762,36.133,-17.090,27.344
1584600334.474,34.180,34.180,40.527,42.969,0.000
1584600334.477,43.945,36.621,40.039,104.004,3.906
1584600334.481,23.438,27.832,32.227,51.270,42.480
1584600334.485,3.418,22.461,26.367,-27.832,26.855
1584600334.489,16.113,26.855,34.180,8.789,-45.410
1584600334.493,35.645,31.738,41.992,97.656,-52.246
1584600334.497,25.391,32.715,39.062,76.172,-34.180
1584600334.501,0.977,26.855,31.250,-11.230,31.250
1584600334.505,8.301,30.273,28.809,-7.812,26.855
1584600334.509,30.273,29.785,35.156,82.520,23.438
1584600334.513,27.832,27.832,37.598,94.727,77.148
1584600334.517,9.766,31.250,32.227,11.230,57.129
1584600334.520,6.348,29.785,26.855,-24.414,20.020
1584600334.524,21.484,26.367,26.367,46.387,69.336
1584600334.528,27.832,29.785,31.250,89.844,83.984
1584600334.532,22.949,31.250,37.109,27.832,23.926
1584600334.536,19.043,28.809,38.086,-20.020,21.484
1584600334.540,13.184,25.879,31.250,18.555,-0.977
1584600334.544,20.996,18.066,23.926,76.172,-8.301
1584600334.548,39.551,36.133,29.297,63.477,3.906
1584600334.552,33.691,46.387,33.203,-4.395,53.223
1584600334.556,12.207,36.133,32.715,-6.836,75.684
1584600334.560,11.230,35.645,36.621,65.430,78.125
1584600334.563,7.812,29.297,38.574,62.012,61.523
1584600334.567,-8.301,21.973,37.598,-19.043,32.715
1584600334.571,11.230,24.414,38.086,-13.672,52.246
1584600334.575,28.809,25.391,37.109,62.500,35.645
1584600334.579,17.578,23.438,37.598,77.637,58.105
1584600334.583,-0.977,15.625,35.645,7.812,31.738
1584600334.587,-2.441,15.137,40.039,-27.344,-56.641
1584600334.591,18.066,20.020,45.410,47.363,7.324
1584600334.595,23.438,16.602,43.457,98.633,82.520
1584600334.599,15.625,14.160,40.039,41.016,76.660
1584600334.602,17.090,14.160,36.133,-12.695,62.500
1584600334.606,32.715,22.461,36.133,30.762,7.812
1584600334.610,45.898,26.855,41.504,99.121,30.762
1584600334.614,34.180,16.113,40.039,69.336,44.434
1584600334.618,13.672,15.137,33.203,-18.555,4.883
1584600334.622,21.973,20.508,35.645,-6.348,3.906
1584600334.626,41.016,23.438,35.156,81.543,5.859
1584600334.630,39.551,26.855,31.738,81.055,-5.371
1584600334.634,27.832,27.832,33.203,3.418,9.766
1584600334.638,21.973,27.832,33.203,-8.789,31.738
1584600334.642,35.645,20.020,31.738,66.895,-25.879
1584600334.645,43.457,23.438,32.227,87.402,5.371
1584600334.649,24.902,27.832,35.156,19.531,19.531
1584600334.653,13.184,20.508,31.738,-19.531,-32.715
1584600334.657,28.809,29.785,32.715,44.434,-18.066
1584600334.661,34.668,35.645,34.180,97.168,5.859
1584600334.665,21.484,28.320,31.738,36.133,52.734
1584600334.669,20.996,32.227,32.227,-26.367,23.438
1584600334.673,31.738,29.297,32.227,21.484,7.812
1584600334.677,37.598,20.020,30.273,89.355,39.062
1584600334.681,23.438,24.902,28.809,55.664,8.301
1584600334.685,-0.488,27.344,25.879,-23.438,18.555
1584600334.688,8.789,29.297,29.297,-16.113,17.090
1584600334.692,36.133,34.668,37.598,66.895,24.902
1584600334.696,30.762,36.621,34.668,75.684,53.223
1584600334.700,-0.488,30.273,24.902,-6.836,24.414
1584600334.704,2.441,22.461,25.391,-27.344,20.020
1584600334.708,31.250,34.180,31.738,54.688,-3.418
1584600334.712,32.227,43.457,30.273,92.285,-4.883
1584600334.716,5.859,31.738,20.996,17.578,59.570
1584600334.720,5.859,28.809,25.879,-32.227,69.824
1584600334.724,29.297,34.180,32.715,30.762,10.742
1584600334.727,33.203,27.344,32.715,92.285,6.836
1584600334.731,19.043,18.555,32.715,50.293,29.785
1584600334.735,4.883,27.832,31.250,-22.949,5.859
1584600334.739,10.254,37.109,31.738,7.324,43.945
1584600334.743,27.832,30.273,35.645,85.449,14.648
1584600334.747,23.438,27.344,32.715,63.965,-33.203
1584600334.751,7.812,29.297,33.691,-14.160,31.738
1584600334.755,16.113,30.273,36.621,-11.230,33.203
1584600334.759,31.738,32.227,34.180,68.848,21.484
1584600334.763,24.414,29.785,29.785,81.055,32.715
1584600334.767,11.230,30.762,27.832,2.930,1.465
1584600334.770,13.184,35.156,29.297,-30.273,51.758
1584600334.774,11.230,32.227,22.461,31.250,57.617
1584600334.778,16.113,29.785,25.879,76.660,12.207
1584600334.782,16.113,22.949,35.645,25.879,1.465
1584600334.786,5.859,23.926,32.227,-32.227,16.602
1584600334.790,14.160,34.668,24.902,16.602,6.836
1584600334.794,16.602,35.156,24.902,80.566,-19.043
1584600334.798,5.859,33.203,30.273,46.875,25.879
1584600334.802,1.465,34.180,27.344,-26.855,54.688
1584600334.806,16.113,34.180,30.762,-5.859,2.930
1584600334.810,35.156,25.879,40.039,91.797,49.805
1584600334.813,51.758,24.414,40.039,103.027,73.730
1584600334.817,37.598,39.551,32.227,13.672,36.621
1584600334.821,4.395,41.992,24.902,-28.809,-7.324
1584600334.825,12.207,41.992,23.926,40.527,-22.949
1584600334.829,25.879,40.527,25.391,67.871,12.207
1584600334.833,7.324,35.156,23.438,-4.395,20.508
1584600334.837,1.953,43.945,17.090,-36.621,-33.691
1584600334.841,23.926,49.805,17.578,31.250,-38.574
1584600334.845,26.367,48.828,18.066,75.195,49.805
1584600334.849,6.348,47.852,11.719,15.625,61.523
1584600334.852,2.441,50.293,8.789,-39.551,37.109
1584600334.856,27.344,56.152,12.695,10.742,20.996
1584600334.860,43.945,58.105,19.043,83.008,28.320
1584600334.864,37.109,62.500,23.926,65.430,12.695
1584600334.868,21.484,55.176,23.438,-6.836,-51.270
1584600334.872,30.762,50.781,23.438,0.000,18.066
1584600334.876,45.410,50.293,24.414,74.707,56.152
1584600334.880,24.414,42.969,18.066,66.895,-0.488
1584600334.884,-0.977,34.180,10.742,-18.555,-2.930
1584600334.888,9.277,40.039,18.066,-24.902,26.855
1584600334.892,33.203,53.711,28.320,57.129,52.246
1584600334.895,36.621,39.551,24.414,82.520,8.301
1584600334.899,18.066,28.320,20.996,12.695,3.906
1584600334.903,7.812,38.086,23.926,-40.527,29.297
1584600334.907,23.926,46.387,28.809,18.066,69.336
1584600334.911,38.086,53.711,31.738,89.844,57.129
1584600334.915,26.367,48.340,28.320,43.457,42.480
1584600334.919,15.625,41.992,27.344,-32.715,20.996
1584600334.923,22.949,44.434,27.344,0.488,-6.348
1584600334.927,30.273,36.133,22.461,75.684,31.738
1584600334.931,27.832,35.645,23.926,59.570,43.945
1584600334.935,9.766,38.574,26.855,-20.996,29.785
1584600334.938,11.719,37.598,25.879,-19.531,11.719
1584600334.942,27.832,42.480,27.832,62.988,39.062
1584600334.946,20.996,43.945,27.344,70.312,23.926
1584600334.950,4.395,39.551,24.414,-14.160,62.500
1584600334.954,8.789,36.621,27.832,-37.598,55.664
1584600334.958,33.691,44.922,35.156,50.781,29.785
1584600334.962,41.504,53.711,33.691,88.867,16.113
1584600334.966,15.137,33.691,24.414,10.254,28.809
1584600334.970,-3.906,17.578,17.578,-46.387,48.340
1584600334.974,11.230,30.762,19.531,17.090,9.766
1584600334.977,34.668,44.434,26.855,87.402,13.184
1584600334.981,29.785,39.062,28.809,43.945,48.340
1584600334.985,11.719,37.598,29.785,-24.414,82.520
1584600334.989,27.344,41.992,36.621,8.789,56.641
1584600334.993,33.691,25.879,35.645,70.801,0.977
1584600334.997,15.625,19.531,30.762,50.293,43.945
1584600335.001,-2.441,36.621,30.762,-19.531,76.660
1584600335.005,-0.488,41.992,31.738,-22.949,34.180
1584600335.009,16.113,35.645,29.785,53.223,16.113
1584600335.013,7.324,27.832,24.414,68.848,-11.719
1584600335.017,-4.883,29.297,28.320,-2.930,40.039
1584600335.020,5.859,36.621,33.203,-29.785,15.625
1584600335.024,31.250,42.480,34.668,41.504,-30.273
1584600335.028,36.133,47.363,36.621,87.891,36.133
1584600335.032,13.184,40.527,33.203,27.832,35.645
1584600335.036,4.883,32.227,27.344,-34.180,0.488
1584600335.040,21.484,34.180,30.762,16.602,76.172
1584600335.044,32.715,37.109,39.062,90.820,111.328
1584600335.048,17.578,28.320,34.180,48.340,45.898
1584600335.052,-1.465,22.949,26.367,-30.762,27.344
1584600335.056,7.812,28.809,29.297,-7.812,16.113
1584600335.060,27.344,37.598,37.109,71.777,3.418
1584600335.063,22.949,38.086,36.621,68.359,6.836
1584600335.067,9.766,31.250,32.715,-9.277,-22.949
1584600335.071,14.160,25.391,28.320,-20.020,-16.602
1584600335.075,37.109,31.250,25.879,61.523,-28.809
1584600335.079,40.527,40.039,29.297,87.402,16.113
1584600335.083,17.090,38.086,30.762,13.184,31.250
1584600335.087,6.348,32.715,24.414,-33.691,9.766
1584600335.091,24.902,31.738,28.809,33.203,13.184
1584600335.095,25.391,25.391,32.227,83.008,-18.555
1584600335.099,9.277,24.414,30.762,20.020,10.254
1584600335.102,3.418,27.344,33.203,-36.133,1.953
1584600335.106,7.324,20.020,23.438,5.371,13.672
1584600335.110,22.949,24.902,20.508,74.219,58.105
1584600335.114,15.137,28.809,23.438,51.270,60.547
1584600335.118,-1.953,29.297,22.949,-25.391,76.172
1584600335.122,15.137,34.180,25.391,-14.648,22.949
1584600335.126,33.691,37.109,30.273,72.266,48.828
1584600335.130,32.715,41.016,32.227,75.684,102.539
1584600335.134,17.090,38.574,32.715,-3.418,24.414
1584600335.138,9.766,33.203,27.832,-18.066,-2.930
1584600335.142,18.555,31.250,20.020,56.641,33.691
1584600335.145,20.508,31.738,20.508,80.566,56.641
1584600335.149,12.207,28.809,28.320,12.207,46.875
1584600335.153,4.395,24.902,26.367,-26.367,-5.371
1584600335.157,14.648,31.250,20.020,32.715,-16.602
1584600335.161,22.949,39.551,22.949,87.891,32.227
1584600335.165,19.043,38.574,25.879,41.016,51.270
1584600335.169,6.348,29.297,24.414,-28.809,10.742
1584600335.173,20.508,32.715,30.273,10.742,38.086
1584600335.177,37.598,33.203,30.762,89.844,45.410
1584600335.181,24.414,33.203,25.879,64.453,69.824
1584600335.185,11.719,29.785,27.832,-20.996,79.102
1584600335.188,15.625,18.555,22.461,-27.344,5.371
1584600335.192,26.855,31.738,19.531,55.176,35.645
1584600335.196,16.113,32.715,21.973,64.453,31.738
1584600335.200,-3.906,22.949,24.902,-15.625,15.137
1584600335.204,-0.977,29.297,28.320,-36.621,-16.602
1584600335.208,20.508,39.551,31.738,46.387,31.738
1584600335.212,21.484,32.715,27.832,80.078,94.727
1584600335.216,0.488,17.090,20.996,-0.488,39.551
1584600335.220,-2.441,20.996,27.344,-42.480,1.465
1584600335.224,21.973,24.902,41.504,28.809,44.434
1584600335.227,29.785,25.391,37.598,85.449,84.473
1584600335.231,15.137,32.227,28.320,35.156,21.973
1584600335.235,6.348,27.344,30.762,-35.645,19.043
1584600335.239,19.531,18.555,32.227,-4.395,14.160
1584600335.243,23.926,22.949,28.320,69.824,8.301
1584600335.247,10.742,28.320,23.438,47.852,34.180
1584600335.251,0.977,23.438,19.531,-34.180,-9.277
1584600335.255,9.766,31.250,21.484,-26.855,12.695
1584600335.259,30.273,34.668,29.297,63.965,54.688
1584600335.263,27.344,21.484,36.133,86.426,76.172
1584600335.267,18.066,27.344,37.598,14.160,65.918
1584600335.270,20.996,32.715,35.156,-19.531,59.082
1584600335.274,28.809,22.949,34.180,46.387,42.969
1584600335.278,27.344,27.344,31.250,86.914,2.441
1584600335.282,11.230,35.156,21.973,17.090,49.805
1584600335.286,-1.465,24.414,16.602,-39.551,65.430
1584600335.290,15.137,20.020,20.508,17.578,39.062
1584600335.294,37.598,26.367,27.832,90.332,19.531
1584600335.298,37.598,25.879,32.227,67.383,16.602
1584600335.302,18.066,25.391,31.738,-2.441,71.289
1584600335.306,5.859,33.203,33.203,4.395,65.918
1584600335.310,10.254,34.668,34.668,75.195,33.203
1584600335.313,9.766,28.320,33.691,72.266,19.531
1584600335.317,4.883,27.344,32.715,-5.371,-18.066
1584600335.321,17.090,31.250,35.156,-5.371,13.672
1584600335.325,28.320,30.762,30.273,63.965,34.180
1584600335.329,21.973,31.250,24.902,76.172,2.930
1584600335.333,4.883,30.762,27.832,16.602,26.855
1584600335.337,4.883,25.391,30.762,-23.926,62.500
1584600335.341,20.996,28.809,33.691,36.133,7.812
1584600335.345,25.879,30.762,38.086,90.820,-0.977
1584600335.349,17.090,26.367,38.574,32.227,37.109
1584600335.352,4.883,35.645,34.668,-37.109,25.879
1584600335.356,23.926,40.527,39.551,15.625,43.457
1584600335.360,39.551,37.598,39.551,89.844,36.621
1584600335.364,25.391,35.645,34.180,56.152,30.273
1584600335.368,10.742,32.715,36.621,-22.461,57.129
1584600335.372,4.395,28.809,30.273,-16.113,-20.508
1584600335.376,18.555,32.715,25.879,66.895,-73.730
1584600335.380,17.578,30.762,29.297,67.871,-5.371
1584600335.384,-0.488,31.250,29.297,-12.207,-38.086
1584600335.388,6.348,38.574,32.227,-25.879,-35.645
1584600335.392,21.973,42.480,34.668,58.105,35.645
1584600335.395,25.391,40.039,32.227,98.633,24.414
1584600335.399,11.719,30.762,29.785,23.926,20.020
1584600335.403,7.324,35.645,31.250,-25.391,43.945
1584600335.407,29.785,40.527,36.133,42.480,48.340
1584600335.411,28.320,32.227,28.320,93.262,8.301
1584600335.415,8.789,33.203,22.461,35.645,-33.203
1584600335.419,2.930,38.574,25.391,-32.227,-11.719
1584600335.423,15.625,35.645,30.273,4.395,21.484
1584600335.427,27.344,38.574,31.250,82.031,36.133
1584600335.431,19.531,34.668,29.785,65.918,40.039
1584600335.435,7.324,22.949,30.273,-11.719,-1.953
1584600335.438,14.160,27.344,31.738,-6.348,-54.199
1584600335.442,36.133,33.203,37.598,78.613,5.859
1584600335.446,32.227,26.367,39.551,81.543,26.367
1584600335.450,6.836,20.020,33.691,-3.906,22.461
1584600335.454,6.836,24.902,27.832,-26.367,28.320
1584600335.458,36.133,32.715,27.344,55.176,23.438
1584600335.462,49.805,32.227,32.227,101.562,58.594
1584600335.466,20.996,25.879,34.180,36.621,55.664
1584600335.470,-11.719,21.484,30.273,-37.598,45.410
1584600335.474,-3.418,28.809,34.180,9.766,13.184
1584600335.477,11.230,33.203,41.504,80.078,-34.180
1584600335.481,7.324,23.926,39.062,44.922,-10.742
1584600335.485,-1.465,19.043,39.551,-22.949,13.672
1584600335.489,-3.906,18.066,41.016,-3.906,-0.977
1584600335.493,7.812,20.020,49.316,80.078,51.758
1584600335.497,-0.488,14.160,50.781,77.637,67.383
1584600335.501,-17.090,9.766,41.016,-11.719,34.180
1584600335.505,-3.418,18.066,41.504,-18.555,31.738
1584600335.509,18.066,20.020,46.387,65.918,35.156
1584600335.513,17.578,15.137,50.293,84.961,58.105
1584600335.517,3.906,15.137,45.898,11.230,91.797
1584600335.520,4.395,20.020,42.480,-27.832,41.504
1584600335.524,30.762,32.715,55.176,52.734,12.695
1584600335.528,33.203,32.227,48.828,96.191,30.762
1584600335.532,8.301,19.043,36.133,16.602,-4.883
1584600335.536,-2.441,21.973,38.086,-41.016,-19.531
1584600335.540,8.789,23.438,41.504,14.160,-16.113
1584600335.544,21.484,15.625,34.668,82.031,30.762
1584600335.548,10.742,20.020,28.320,42.480,18.555
1584600335.552,-2.441,24.902,29.785,-36.133,-11.230
1584600335.556,4.395,22.461,28.809,-18.555,30.273
1584600335.560,22.949,25.391,36.133,70.801,47.852
1584600335.563,28.320,23.926,42.969,74.707,63.965
1584600335.567,3.418,16.602,37.598,-15.137,63.477
1584600335.571,2.441,17.090,37.109,-29.785,4.883
1584600335.575,21.973,20.508,41.016,54.199,30.273
1584600335.579,19.531,23.438,38.086,76.172,53.711
1584600335.583,11.719,28.809,40.527,5.859,28.320
1584600335.587,18.066,29.785,48.828,-20.996,84.961
1584600335.591,32.715,27.832,44.922,38.574,98.145
1584600335.595,28.320,23.438,37.598,79.590,8.789
1584600335.599,4.883,12.695,35.645,25.879,30.762
1584600335.602,-8.789,13.184,41.992,-31.250,46.875
1584600335.606,-0.977,18.066,43.457,9.766,36.621
1584600335.610,14.160,17.090,41.016,74.707,57.617
1584600335.614,4.395,17.578,40.039,52.734,16.113
1584600335.618,-14.160,16.602,36.133,-24.902,39.062
1584600335.622,-3.906,22.949,31.738,-21.973,67.871
1584600335.626,19.531,24.414,35.645,68.848,41.992
1584600335.630,22.949,29.785,45.410,83.984,-9.277
1584600335.634,6.348,33.691,44.434,0.000,-22.461
1584600335.638,12.695,24.902,34.668,-25.879,48.828
1584600335.642,32.715,22.949,29.785,57.617,49.805
1584600335.645,15.137,23.926,28.809,83.496,-7.324
1584600335.649,-10.742,26.855,27.344,0.977,12.695
1584600335.653,-10.742,20.508,24.902,-51.270,-5.371
1584600335.657,3.906,19.043,23.926,-0.977,13.672
1584600335.661,11.719,28.809,27.344,62.012,40.527
1584600335.665,1.953,24.902,29.785,22.461,-12.207
1584600335.669,2.441,23.926,28.809,-44.434,1.953
1584600335.673,22.461,32.227,35.645,-2.441,-5.371
1584600335.677,38.574,44.434,43.457,82.520,14.648
1584600335.681,26.367,40.527,37.109,59.082,30.762
1584600335.685,6.836,25.391,28.320,-26.855,31.738
1584600335.688,12.695,25.391,29.297,-24.414,25.879
1584600335.692,26.367,34.668,32.715,59.082,37.598
1584600335.696,22.949,32.715,28.809,62.988,68.359
1584600335.700,3.906,29.297,24.902,-20.996,15.625
1584600335.704,6.836,33.691,28.320,-37.598,-13.672
1584600335.708,30.273,32.715,33.203,44.434,44.922
1584600335.712,34.180,33.203,36.133,91.309,23.926
1584600335.716,17.090,31.250,33.203,26.367,-10.254
1584600335.720,12.695,24.414,33.691,-29.785,-13.672
1584600335.724,30.762,29.297,37.598,32.227,-14.160
1584600335.727,34.668,37.109,35.156,86.426,62.988
1584600335.731,20.996,30.273,31.738,40.039,74.707
1584600335.735,0.488,23.438,28.320,-26.367,62.500
1584600335.739,13.672,35.645,36.621,9.277,47.852
1584600335.743,28.809,35.645,41.992,82.031,22.461
1584600335.747,12.207,28.809,33.691,57.617,32.227
1584600335.751,0.977,30.273,27.832,-17.578,28.809
1584600335.755,9.277,24.414,27.832,-22.949,27.832
1584600335.759,25.879,27.344,31.738,50.293,28.320
1584600335.763,24.902,34.668,39.062,72.754,19.043
1584600335.767,7.812,38.086,41.504,4.395,6.836
1584600335.770,3.906,36.133,38.086,-30.273,70.312
1584600335.774,17.090,24.902,36.133,38.086,64.453
1584600335.778,21.484,22.949,39.551,83.008,23.438
1584600335.782,8.301,32.715,36.133,26.855,30.762
1584600335.786,-5.859,27.344,27.832,-36.621,34.180
1584600335.790,10.254,26.367,35.645,5.859,46.875
1584600335.794,27.832,37.109,38.086,74.219,6.836
1584600335.798,14.160,38.574,34.180,38.086,-3.418
1584600335.802,-2.441,35.156,34.668,-30.273,18.555
1584600335.806,7.324,37.598,39.062,-1.953,28.320
1584600335.810,31.250,39.062,36.621,72.266,40.527
1584600335.813,25.879,36.621,26.855,58.105,17.578
1584600335.817,6.836,36.621,27.344,-18.066,-23.926
1584600335.821,3.906,37.598,27.344,-32.715,-11.230
1584600335.825,7.812,32.227,30.273,43.945,46.387
1584600335.829,11.719,23.926,35.156,77.148,57.617
1584600335.833,3.418,17.090,33.203,9.766,51.758
1584600335.837,5.859,30.273,31.738,-29.785,-16.113
1584600335.841,23.926,43.945,35.156,33.691,1.465
1584600335.845,23.438,41.992,41.016,89.844,45.898
1584600335.849,0.000,33.203,30.762,25.391,50.781
1584600335.852,-10.742,29.785,24.414,-47.363,22.461
1584600335.856,10.742,34.180,28.320,2.441,45.898
1584600335.860,22.949,36.133,31.250,81.055,79.590
1584600335.864,13.672,28.809,31.738,56.152,54.199
1584600335.868,-6.836,22.461,28.809,-17.578,84.961
1584600335.872,2.930,30.762,31.250,-8.789,62.500
1584600335.876,22.949,32.715,29.785,65.918,5.371
1584600335.880,16.113,34.180,24.902,61.523,10.742
1584600335.884,5.371,37.598,26.855,-14.160,29.297
1584600335.888,17.090,33.691,39.062,-17.090,-10.742
1584600335.892,31.250,33.691,44.434,55.176,-0.488
1584600335.895,21.973,34.180,34.180,76.172,94.238
1584600335.899,5.371,37.109,24.902,13.672,42.969
1584600335.903,-6.348,30.273,24.902,-28.809,32.227
1584600335.907,10.254,21.484,27.344,24.902,62.012
1584600335.911,22.461,27.344,22.949,81.543,67.871
1584600335.915,15.625,34.668,21.484,39.062,61.035
1584600335.919,6.348,29.785,25.879,-25.879,7.812
1584600335.923,13.184,33.203,31.250,12.207,39.551
1584600335.927,27.832,39.551,32.227,88.379,72.754
1584600335.931,24.902,27.344,31.250,65.430,51.270
1584600335.935,4.395,19.531,26.367,-15.137,14.648
1584600335.938,10.254,27.832,24.902,-17.578,40.527
1584600335.942,39.551,35.156,34.180,68.359,56.641
1584600335.946,30.762,24.414,32.227,88.867,46.387
1584600335.950,2.441,19.531,20.996,2.930,33.203
1584600335.954,-0.488,27.832,23.438,-30.762,16.602
1584600335.958,24.902,25.391,27.344,47.363,24.414
1584600335.962,37.109,24.902,23.438,90.332,38.086
1584600335.966,7.324,28.320,19.043,24.902,39.062
1584600335.970,-7.324,28.809,20.508,-32.227,9.766
1584600335.974,17.090,35.645,27.344,23.926,5.371
1584600335.977,29.297,36.133,31.250,90.820,34.668
1584600335.981,22.461,25.879,23.438,47.852,26.367
1584600335.985,31.250,18.066,32.715,4.883,-11.230
1584600335.989,60.547,29.297,50.293,61.035,-16.602
1584600335.993,42.480,33.691,32.227,102.539,6.348
1584600335.997,-4.883,24.902,9.277,39.551,-15.137
1584600336.001,-20.996,25.879,5.371,-38.086,-51.270
1584600336.005,-5.371,32.715,9.766,-23.926,8.301
1584600336.009,20.996,31.250,22.461,62.500,51.270
1584600336.013,25.391,28.320,24.414,83.984,39.551
1584600336.017,12.207,21.973,19.531,12.695,42.969
1584600336.020,13.184,16.602,19.531,-20.996,19.043
1584600336.024,33.691,20.508,22.461,48.828,28.809
1584600336.028,34.668,20.020,21.973,91.797,47.363
1584600336.032,11.230,19.531,16.602,30.273,39.551
1584600336.036,3.906,24.414,19.043,-27.344,30.762
1584600336.040,20.508,23.438,20.020,16.113,15.137
1584600336.044,32.715,20.020,22.461,84.961,-23.438
1584600336.048,16.602,17.578,20.020,52.246,-23.926
1584600336.052,-3.418,21.484,11.230,-26.367,36.621
1584600336.056,7.812,33.203,13.672,-6.836,1.953
1584600336.060,19.531,25.391,14.648,69.824,-14.160
1584600336.063,11.230,15.137,11.230,62.988,21.973
1584600336.067,-4.395,14.648,10.254,-18.066,14.648
1584600336.071,8.789,14.648,14.160,-30.273,-10.254
1584600336.075,22.949,21.973,17.578,47.363,18.066
1584600336.079,12.207,27.344,15.137,73.242,65.918
1584600336.083,4.883,19.531,12.695,2.930,54.199
1584600336.087,3.418,18.066,13.184,-36.133,42.969
1584600336.091,21.484,21.973,20.996,34.180,-6.348
1584600336.095,27.832,13.184,21.973,89.355,-18.066
1584600336.099,10.254,9.277,14.648,33.203,35.156
1584600336.102,1.465,19.043,12.207,-31.250,78.125
1584600336.106,11.719,26.367,11.719,2.930,40.039
1584600336.110,31.250,28.809,13.672,76.172,-15.137
1584600336.114,28.320,21.484,19.531,62.988,-37.598
1584600336.118,8.301,16.602,16.113,-18.066,-16.602
1584600336.122,18.555,24.902,18.066,-12.695,23.438
1584600336.126,39.062,29.297,26.855,78.613,75.195
1584600336.130,26.367,20.508,20.020,78.613,41.504
1584600336.134,7.324,18.066,15.625,-2.441,45.898
1584600336.138,20.508,21.973,23.438,-15.137,72.266
1584600336.142,45.410,21.484,26.855,58.594,28.320
1584600336.145,43.457,22.949,27.344,96.680,27.832
1584600336.149,25.391,25.391,28.809,35.156,-15.137
1584600336.153,15.625,24.414,20.020,-20.020,11.719
1584600336.157,26.367,23.926,20.020,37.109,41.016
1584600336.161,44.922,28.320,27.344,100.586,22.949
1584600336.165,37.109,28.809,28.320,53.711,78.613
1584600336.169,18.555,26.367,30.762,-16.113,67.871
1584600336.173,24.902,23.926,29.785,14.648,24.414
1584600336.177,30.762,25.391,24.414,86.426,46.387
1584600336.181,28.809,30.762,32.227,69.336,48.828
1584600336.185,16.113,30.762,32.227,-10.254,67.383
1584600336.188,11.719,26.855,23.438,-15.137,78.613
1584600336.192,26.367,28.320,27.832,63.965,51.270
1584600336.196,27.832,27.344,35.645,81.543,-10.254
1584600336.200,13.672,28.320,35.156,9.766,-1.465
1584600336.204,10.254,31.250,30.273,-23.438,40.527
1584600336.208,27.344,31.250,31.250,41.992,-13.672
1584600336.212,31.250,27.344,29.297,79.590,-38.086
1584600336.216,7.812,22.461,24.902,13.184,-10.254
1584600336.220,1.953,29.785,25.879,-36.621,-10.254
1584600336.224,23.438,41.016,31.250,17.578,-25.879
1584600336.227,30.273,41.016,33.691,80.078,31.250
1584600336.231,13.184,31.250,25.879,37.598,29.785
1584600336.235,2.930,29.297,19.043,-34.668,19.531
1584600336.239,12.207,32.227,23.926,0.977,70.312
1584600336.243,27.832,31.250,29.785,84.961,73.730
1584600336.247,20.996,33.203,29.785,67.871,78.613
1584600336.251,-6.836,27.832,26.855,-25.879,107.910
1584600336.255,-6.348,20.508,27.344,-34.180,82.520
1584600336.259,10.742,20.996,31.738,44.922,27.344
1584600336.263,10.742,24.414,29.785,62.988,45.410
1584600336.267,-1.953,20.996,26.367,-6.836,63.477
1584600336.270,-0.488,20.508,27.832,-42.480,40.527
1584600336.274,17.090,33.203,32.227,32.227,-33.691
1584600336.278,24.414,34.180,35.156,91.309,-72.754
1584600336.282,19.531,23.438,32.227,36.133,41.504
1584600336.286,15.137,27.832,33.691,-21.973,70.801
1584600336.290,26.367,35.645,37.598,28.809,17.578
1584600336.294,35.645,34.668,32.715,94.238,8.789
1584600336.298,28.320,26.855,28.320,57.129,30.762
1584600336.302,21.484,27.344,31.738,-11.230,90.820
1584600336.306,19.043,34.180,30.273,0.000,36.133
1584600336.310,20.508,27.832,29.785,74.707,-0.488
1584600336.313,23.438,25.879,32.227,73.242,43.457
1584600336.317,21.484,31.250,35.645,-4.883,26.855
1584600336.321,26.367,30.762,38.086,-14.160,-45.898
1584600336.325,34.180,26.367,34.668,56.641,-59.082
1584600336.329,31.250,30.762,34.668,86.914,52.246
1584600336.333,22.461,40.039,34.668,20.020,100.098
1584600336.337,22.949,41.504,34.668,-25.879,29.785
1584600336.341,33.203,38.086,31.250,37.598,4.883
1584600336.345,38.086,39.551,27.344,89.844,38.574
1584600336.349,22.949,31.250,31.738,39.062,4.883
1584600336.352,9.766,23.926,32.715,-23.438,-3.906
1584600336.356,21.973,36.133,32.715,12.207,-5.371
1584600336.360,29.785,37.598,30.762,79.590,22.949
1584600336.364,23.438,26.855,32.715,57.617,25.879
1584600336.368,5.859,24.902,31.250,-20.996,-36.621
1584600336.372,9.766,31.250,28.320,-15.625,-9.277
1584600336.376,33.691,34.668,33.691,70.801,24.902
1584600336.380,28.320,20.996,31.738,79.590,27.832
1584600336.384,8.301,16.602,21.484,1.953,29.297
1584600336.388,7.324,33.203,20.020,-26.855,39.062
1584600336.392,20.508,40.527,26.855,43.945,11.719
1584600336.395,19.043,37.109,24.414,81.055,29.785
1584600336.399,1.465,29.297,17.578,10.254,-3.418
1584600336.403,0.000,32.715,20.020,-41.504,13.672
1584600336.407,17.090,35.645,23.438,17.090,90.332
1584600336.411,30.273,36.621,30.273,90.820,59.082
1584600336.415,29.785,37.109,40.039,56.641,28.320
1584600336.419,10.742,24.414,34.180,-16.602,8.301
1584600336.423,14.160,22.949,25.391,9.277,36.621
1584600336.427,31.738,34.668,23.438,85.449,57.617
1584600336.431,9.277,31.738,22.461,55.664,60.547
1584600336.435,-17.578,20.508,20.996,-36.133,72.266
1584600336.438,-5.859,25.391,24.414,-30.762,41.992
1584600336.442,14.160,28.809,30.273,64.453,41.992
1584600336.446,14.160,21.484,29.785,72.266,59.082
1584600336.450,6.348,20.508,28.809,-11.230,25.391
1584600336.454,10.254,25.879,31.738,-28.320,33.691
1584600336.458,23.438,25.879,29.785,48.828,8.301
1584600336.462,27.832,23.926,29.297,94.238,-29.297
1584600336.466,17.578,27.344,31.738,31.738,19.531
1584600336.470,12.695,28.809,27.344,-28.809,13.184
1584600336.474,20.996,25.391,18.066,18.066,26.855
1584600336.477,39.062,32.715,23.438,87.891,85.938
1584600336.481,34.180,20.996,31.250,49.805,72.754
1584600336.485,9.766,10.254,25.391,-34.668,47.363
1584600336.489,12.207,25.391,23.438,-13.672,30.762
1584600336.493,31.738,32.227,31.738,69.824,30.762
1584600336.497,37.109,38.086,36.621,67.383,72.754
1584600336.501,20.020,30.762,31.250,-13.184,68.359
1584600336.505,17.090,18.066,30.762,-25.391,11.719
1584600336.509,30.762,20.020,35.156,61.523,20.020
1584600336.513,27.344,26.855,28.809,81.055,33.203
1584600336.517,15.137,31.250,33.203,6.348,-32.715
1584600336.520,23.438,34.668,41.504,-18.555,-16.602
1584600336.524,34.180,27.832,34.668,46.387,28.809
1584600336.528,29.785,22.461,28.320,88.867,-15.625
1584600336.532,18.555,19.531,25.879,31.250,-43.457
1584600336.536,8.789,18.066,20.508,-37.109,-26.367
1584600336.540,19.531,27.832,21.973,-2.441,-37.598
1584600336.544,23.438,31.738,25.879,72.266,-13.672
1584600336.548,5.371,27.832,23.438,46.875,0.488
1584600336.552,-1.953,18.066,25.879,-25.879,-2.930
1584600336.556,20.020,18.555,31.250,-3.418,41.504
1584600336.560,44.434,28.809,40.039,78.613,24.902
1584600336.563,42.969,34.180,47.363,81.543,-18.555
1584600336.567,19.043,33.203,39.062,2.441,27.344
1584600336.571,11.230,23.926,29.297,-19.043,65.918
1584600336.575,27.832,24.902,35.156,60.547,21.973
1584600336.579,27.832,30.273,35.645,87.891,28.320
1584600336.583,10.254,23.926,25.879,8.789,52.246
1584600336.587,6.836,22.949,24.902,-35.156,7.324
1584600336.591,23.438,30.762,29.785,33.691,10.742
1584600336.595,29.785,28.809,34.180,96.680,15.625
1584600336.599,26.367,22.949,39.062,47.363,32.227
1584600336.602,17.090,23.926,37.109,-20.020,61.035
1584600336.606,25.391,27.344,34.180,23.438,59.082
1584600336.610,45.898,27.344,37.598,101.074,49.316
1584600336.614,34.180,28.809,33.691,69.336,-1.953
1584600336.618,8.301,27.344,24.414,-22.949,-2.930
1584600336.622,15.625,20.020,24.414,-17.578,33.691
1584600336.626,34.668,25.391,29.785,68.359,40.527
1584600336.630,23.438,31.250,29.297,72.754,51.758
1584600336.634,5.859,23.926,26.367,-5.859,82.031
1584600336.638,13.184,14.648,27.832,-23.926,63.965
1584600336.642,27.832,20.996,29.785,49.805,15.137
1584600336.645,34.180,25.879,30.273,92.285,11.719
1584600336.649,42.480,25.391,35.156,55.664,20.508
1584600336.653,46.387,35.645,30.273,11.230,46.875
1584600336.657,37.598,41.504,20.020,34.668,71.289
1584600336.661,22.949,44.434,18.555,76.172,38.574
1584600336.665,14.160,41.016,16.602,32.227,68.848
1584600336.669,9.766,34.668,17.090,-35.645,90.332
1584600336.673,13.672,38.086,18.555,-8.789,27.832
1584600336.677,23.438,42.480,16.113,61.035,12.695
1584600336.681,15.137,36.621,9.766,39.062,3.418
1584600336.685,-5.859,30.273,6.836,-43.945,24.414
1584600336.688,7.812,43.457,11.719,-46.875,15.137
1584600336.692,28.809,56.152,6.836,32.227,-15.625
1584600336.696,18.066,54.688,-4.395,44.922,19.043
1584600336.700,-0.977,50.293,-0.977,-28.320,30.762
1584600336.704,9.277,51.270,2.930,-50.293,17.578
1584600336.708,33.691,59.570,0.488,20.020,35.156
1584600336.712,38.086,53.711,-0.488,59.570,57.129
1584600336.716,24.902,44.434,-5.859,-6.348,55.176
1584600336.720,10.742,50.781,-6.836,-62.012,73.730
1584600336.724,24.414,63.965,-2.441,-3.906,52.246
1584600336.727,41.992,66.895,-1.465,63.965,24.902
1584600336.731,35.645,61.523,-4.883,27.832,31.738
1584600336.735,23.438,64.453,-1.953,-43.945,72.754
1584600336.739,30.273,67.383,5.371,-16.113,47.852
1584600336.743,49.316,65.430,4.395,69.824,35.156
1584600336.747,50.781,73.242,5.859,62.012,92.773
1584600336.751,37.598,78.125,9.766,-16.602,86.426
1584600336.755,34.668,62.012,2.930,-26.367,46.875
1584600336.759,38.574,56.152,-1.465,48.828,63.965
1584600336.763,35.156,59.570,0.488,68.359,82.031
1584600336.767,23.926,57.617,3.418,-1.953,37.109
1584600336.770,25.879,53.223,4.395,-41.504,19.043
1584600336.774,35.156,47.852,8.301,23.926,38.086
1584600336.778,34.668,55.664,8.301,68.359,-10.254
1584600336.782,30.273,64.941,6.348,15.137,-38.574
1584600336.786,26.367,62.500,5.859,-37.109,-21.973
1584600336.790,35.156,57.617,9.766,10.742,-19.043
1584600336.794,49.805,56.152,17.090,83.008,64.941
1584600336.798,44.434,53.223,20.996,51.270,99.121
1584600336.802,22.461,49.316,20.020,-29.297,24.414
1584600336.806,26.367,46.875,19.043,-18.066,-13.184
1584600336.810,45.410,47.852,20.508,63.477,-26.855
1584600336.813,47.852,43.457,22.461,66.895,-9.277
1584600336.817,37.598,43.945,24.414,-2.930,1.465
1584600336.821,28.809,49.805,21.484,-22.949,0.000
1584600336.825,39.062,49.805,21.484,47.852,-22.461
1584600336.829,40.039,50.781,24.414,83.008,53.223
1584600336.833,19.043,48.828,22.461,11.230,61.523
1584600336.837,12.207,43.457,18.555,-39.551,-3.906
1584600336.841,30.762,46.387,23.926,30.273,40.039
1584600336.845,41.992,48.340,26.855,89.355,37.109
1584600336.849,30.762,39.062,24.902,32.227,-3.418
1584600336.852,19.043,29.785,30.273,-30.273,-28.809
1584600336.856,24.902,33.203,38.086,19.043,37.109
1584600336.860,35.156,41.504,37.109,88.867,52.734
1584600336.864,27.832,40.039,33.203,58.105,-7.324
1584600336.868,6.836,30.273,26.367,-22.461,18.555
1584600336.872,20.020,37.598,31.738,-13.184,20.508
1584600336.876,38.086,46.875,41.504,74.707,-22.949
1584600336.880,21.973,32.715,29.297,77.148,-22.949
1584600336.884,-1.465,23.926,18.066,-10.254,44.434
1584600336.888,2.441,29.785,20.020,-32.227,46.875
1584600336.892,26.367,41.992,25.391,55.176,47.363
1584600336.895,28.809,39.062,30.273,91.797,49.316
1584600336.899,20.508,33.691,34.668,21.484,20.996
1584600336.903,22.949,36.133,35.156,-32.715,27.344
1584600336.907,36.133,32.715,33.691,26.855,35.156
1584600336.911,41.016,32.715,31.250,90.820,56.152
1584600336.915,30.762,30.762,28.320,37.598,68.359
1584600336.919,18.066,29.785,25.879,-35.156,45.410
1584600336.923,24.902,37.598,24.902,-4.883,4.395
1584600336.927,43.457,41.992,33.203,80.566,67.383
1584600336.931,36.133,32.715,35.645,66.406,35.156
1584600336.935,12.695,26.367,30.273,-15.137,19.531
1584600336.938,13.672,32.227,30.762,-14.160,72.754
1584600336.942,26.855,34.180,32.227,67.871,43.457
1584600336.946,27.832,33.203,28.809,78.613,48.828
1584600336.950,14.160,32.715,27.344,0.977,66.895
1584600336.954,4.883,27.344,27.832,-31.738,30.273
1584600336.958,12.695,24.902,21.973,24.902,26.367
1584600336.962,19.531,28.320,21.973,71.777,32.715
1584600336.966,10.254,30.273,23.926,16.602,37.598
1584600336.970,3.906,25.879,23.926,-41.016,-13.184
1584600336.974,17.578,23.926,30.273,6.836,-28.809
1584600336.977,26.367,26.367,32.227,73.730,7.324
1584600336.981,19.531,32.227,29.785,43.945,57.129
1584600336.985,8.301,30.273,27.832,-29.297,63.965
1584600336.989,16.113,28.320,30.762,-4.883,27.832
1584600336.993,28.320,31.738,33.691,77.148,24.902
1584600336.997,19.531,23.438,31.250,65.430,14.648
1584600337.001,-3.906,23.438,25.879,-19.043,47.852
1584600337.005,-4.883,23.926,25.879,-32.715,0.488
1584600337.009,12.695,20.996,25.391,48.340,-11.230
1584600337.013,15.137,25.879,25.391,71.777,19.043
1584600337.017,2.441,30.762,30.762,-0.977,24.414
1584600337.020,-3.418,26.367,27.832,-39.551,18.066
1584600337.024,14.648,26.855,28.320,29.297,22.461
1584600337.028,23.926,29.297,28.320,85.449,53.223
1584600337.032,11.230,18.555,24.902,25.879,22.949
1584600337.036,3.906,20.996,27.344,-33.203,17.090
1584600337.040,21.484,33.691,34.180,16.602,30.762
1584600337.044,34.668,32.715,34.668,85.449,13.672
1584600337.048,28.320,28.320,33.691,62.988,60.547
1584600337.052,15.625,23.438,33.691,-7.812,95.215
1584600337.056,19.043,27.344,30.273,5.371,42.969
1584600337.060,34.180,33.203,29.297,85.938,-0.977
1584600337.063,24.902,22.461,25.879,75.195,-22.949
1584600337.067,7.812,18.066,25.879,-12.207,-20.020
1584600337.071,15.137,24.902,34.180,-16.602,30.762
1584600337.075,28.809,25.391,33.203,64.941,58.594
1584600337.079,25.879,23.438,26.855,89.844,-4.883
1584600337.083,15.625,24.414,24.902,17.578,-11.230
1584600337.087,18.066,20.020,30.762,-18.066,62.500
1584600337.091,24.902,22.461,33.203,44.922,78.125
1584600337.095,27.832,33.203,24.414,94.238,75.684
1584600337.099,22.949,40.039,27.344,46.387,50.293
1584600337.102,4.395,28.809,29.785,-25.879,26.367
1584600337.106,4.395,20.020,23.438,5.859,55.176
1584600337.110,26.855,35.645,26.855,78.613,96.191
1584600337.114,23.438,31.250,27.832,63.965,79.102
1584600337.118,10.742,24.902,24.902,-13.672,-21.973
1584600337.122,28.320,35.645,29.785,-12.695,-28.809
1584600337.126,42.480,28.320,28.320,73.730,30.762
1584600337.130,40.039,23.438,25.391,86.426,3.906
1584600337.134,24.414,28.809,24.902,7.812,11.230
1584600337.138,6.836,33.203,23.926,-30.762,62.500
1584600337.142,8.789,34.180,23.438,30.273,21.484
1584600337.145,13.184,36.133,23.926,63.477,14.160
1584600337.149,11.719,35.645,27.344,7.324,32.715
1584600337.153,9.277,34.668,25.391,-43.457,42.480
1584600337.157,5.859,42.480,21.484,-9.277,32.715
1584600337.161,9.277,47.363,18.555,55.664,-8.301
1584600337.165,4.883,37.109,13.184,21.973,-8.789
1584600337.169,-4.395,31.250,14.160,-46.387,68.848
1584600337.173,9.277,38.086,23.926,-7.324,87.402
1584600337.177,16.602,36.621,24.414,67.871,82.031
1584600337.181,3.906,23.926,17.578,46.387,49.805
1584600337.185,-2.930,24.414,20.996,-29.297,29.785
1584600337.188,5.859,29.785,23.926,-27.344,55.176
1584600337.192,26.367,33.203,27.344,61.035,21.484
1584600337.196,27.832,33.203,31.738,79.102,20.020
1584600337.200,4.395,25.879,31.250,-5.859,46.387
1584600337.204,-4.883,26.855,31.250,-37.598,43.945
1584600337.208,14.648,28.320,28.809,37.598,45.898
1584600337.212,24.902,28.809,28.809,82.520,23.926
1584600337.216,5.859,25.879,29.297,19.043,7.324
1584600337.220,-4.883,20.508,29.785,-38.574,13.672
1584600337.224,10.742,31.250,32.715,16.602,13.672
1584600337.227,18.555,43.945,36.133,87.891,35.645
1584600337.231,5.859,38.086,29.785,44.922,7.812
1584600337.235,18.066,37.598,17.090,-19.531,-27.344
1584600337.239,43.945,37.109,21.973,27.832,19.531
1584600337.243,29.297,20.508,37.109,85.938,49.316
1584600337.247,1.465,16.113,41.016,54.688,66.895
1584600337.251,-4.395,18.066,35.156,-13.184,0.488
1584600337.255,-1.465,11.230,35.645,-17.090,-11.230
1584600337.259,13.672,9.766,42.480,66.406,54.688
1584600337.263,21.484,10.742,42.480,92.285,31.250
1584600337.267,1.953,5.859,42.969,16.113,27.344
1584600337.270,-8.301,5.859,41.504,-32.227,36.621
1584600337.274,2.930,14.160,36.621,31.738,43.945
1584600337.278,11.230,20.996,35.645,88.379,51.270
1584600337.282,8.789,20.996,37.109,41.016,36.133
1584600337.286,8.301,12.207,37.598,-19.531,17.578
1584600337.290,16.113,9.277,40.039,25.391,11.230
1584600337.294,20.508,15.137,37.109,100.586,38.574
1584600337.298,11.230,18.066,37.109,67.871,9.277
1584600337.302,0.977,15.137,36.621,-13.672,32.715
1584600337.306,17.578,19.043,34.668,3.418,89.844
1584600337.310,29.785,25.879,34.668,86.914,76.172
1584600337.313,17.578,22.461,29.297,81.543,72.266
1584600337.317,0.000,16.602,26.367,-4.395,73.730
1584600337.321,1.953,13.184,29.785,-25.879,30.762
1584600337.325,20.020,16.113,31.738,57.129,8.789
1584600337.329,27.344,28.320,34.180,96.191,-21.973
1584600337.333,13.184,22.949,35.645,17.090,-45.410
1584600337.337,3.418,15.137,39.062,-28.320,25.391
1584600337.341,18.555,22.949,39.551,33.691,10.742
1584600337.345,20.020,20.996,31.738,84.473,-8.301
1584600337.349,1.953,18.555,26.855,31.738,48.828
1584600337.352,-3.906,24.414,30.273,-34.180,32.227
1584600337.356,11.230,27.832,37.109,12.695,38.086
1584600337.360,17.578,23.926,33.691,87.891,40.527
1584600337.364,9.766,26.855,33.691,62.500,21.973
1584600337.368,0.488,28.809,34.180,-17.090,49.805
1584600337.372,7.812,22.949,34.180,-11.719,16.602
1584600337.376,26.855,21.973,41.016,78.125,7.812
1584600337.380,20.996,20.020,40.039,86.914,63.477
1584600337.384,0.000,15.625,34.668,-0.977,63.965
1584600337.388,4.883,23.926,35.645,-25.879,56.152
1584600337.392,31.738,35.645,41.504,57.129,47.852
1584600337.395,36.133,35.645,43.945,96.191,21.484
1584600337.399,8.301,23.438,33.203,24.902,31.738
1584600337.403,0.977,20.508,28.809,-25.879,45.898
1584600337.407,17.578,20.996,35.645,32.227,-27.832
1584600337.411,21.973,22.461,36.133,94.727,-16.113
1584600337.415,12.695,24.902,35.645,53.223,39.551
1584600337.419,1.465,20.020,35.645,-15.625,81.055
1584600337.423,12.207,16.602,33.203,6.836,107.422
1584600337.427,31.738,24.414,34.668,81.055,63.965
1584600337.431,21.484,26.855,35.645,67.383,-18.066
1584600337.435,0.977,22.949,34.180,-12.207,-8.301
1584600337.438,7.324,30.273,35.156,-15.625,43.945
1584600337.442,27.832,41.992,41.504,67.383,14.648
1584600337.446,31.738,35.156,45.898,91.797,20.508
1584600337.450,13.672,22.949,41.992,14.648,31.738
1584600337.454,8.301,25.879,37.598,-20.996,-2.930
1584600337.458,17.578,26.367,31.738,45.410,19.043
1584600337.462,19.043,21.973,29.785,83.008,55.664
1584600337.466,12.207,21.973,29.785,19.043,-2.441
1584600337.470,10.742,26.855,25.391,-31.738,-36.621
1584600337.474,24.902,31.738,26.367,22.461,80.566
1584600337.477,32.227,32.715,28.320,84.961,112.793
1584600337.481,19.531,23.438,25.391,42.969,64.453
1584600337.485,4.883,22.461,23.926,-34.180,32.715
1584600337.489,23.926,28.809,33.691,0.000,-11.719
1584600337.493,37.598,25.391,37.109,83.008,0.000
1584600337.497,21.484,26.855,34.668,76.172,31.738
1584600337.501,7.324,27.344,34.180,-6.836,28.320
1584600337.505,10.742,28.809,30.273,-24.414,36.133
1584600337.509,25.391,35.156,32.227,62.988,44.434
1584600337.513,25.391,37.109,39.062,92.285,33.203
1584600337.517,8.789,27.832,35.156,11.230,4.395
1584600337.520,2.930,22.949,29.297,-35.156,22.461
1584600337.524,18.066,26.367,35.156,35.645,30.273
1584600337.528,22.949,20.020,34.180,84.961,-4.395
1584600337.532,7.812,20.508,26.855,19.043,15.137
1584600337.536,-1.465,17.578,30.273,-43.457,4.883
1584600337.540,13.184,19.531,34.180,11.230,-6.348
1584600337.544,25.879,28.809,33.203,83.496,77.637
1584600337.548,10.742,26.855,30.273,49.316,64.453
1584600337.552,-5.859,30.273,29.785,-29.297,24.414
1584600337.556,9.277,27.344,33.203,-20.508,17.578
1584600337.560,32.715,31.250,38.574,68.359,49.805
1584600337.563,20.996,34.668,39.551,75.195,17.090
1584600337.567,-6.836,22.461,32.715,-14.648,-36.621
1584600337.571,-1.953,22.949,27.344,-36.621,6.836
1584600337.575,16.602,26.855,26.367,47.363,38.086
1584600337.579,17.578,19.043,29.297,81.055,17.090
1584600337.583,0.000,20.996,27.832,9.277,1.953
1584600337.587,-8.789,23.438,27.832,-36.133,19.531
1584600337.591,7.812,23.438,34.668,29.297,18.555
1584600337.595,18.066,32.227,31.738,85.938,-50.781
1584600337.599,10.742,33.691,30.273,40.039,-62.988
1584600337.602,0.977,20.996,32.715,-26.855,44.434
1584600337.606,7.324,18.555,28.320,1.465,53.711
1584600337.610,24.414,25.391,31.250,79.590,-3.906
1584600337.614,24.414,29.785,36.621,66.406,0.000
1584600337.618,0.000,28.320,28.320,-22.461,54.688
1584600337.622,3.906,29.785,30.273,-15.137,37.109
1584600337.626,24.414,32.227,31.250,68.848,0.000
1584600337.630,19.531,21.973,24.902,67.383,-5.371
1584600337.634,3.418,25.391,28.320,-4.883,22.461
1584600337.638,4.883,33.203,33.691,-24.414,32.715
1584600337.642,24.902,20.020,32.715,51.270,-21.484
1584600337.645,19.531,10.742,21.484,80.566,2.930
1584600337.649,2.930,23.926,18.066,5.859,47.363
1584600337.653,3.418,31.738,20.020,-52.734,25.879
1584600337.657,33.203,37.109,21.973,19.043,45.410
1584600337.661,61.523,39.551,27.832,114.746,30.762
1584600337.665,25.391,24.902,35.645,56.152,-7.812
1584600337.669,-18.555,18.066,37.109,-48.828,-29.785
1584600337.673,-9.277,24.902,42.969,-15.625,-2.441
1584600337.677,6.348,23.438,47.852,73.730,61.035
1584600337.681,-0.977,9.277,47.363,55.176,15.625
1584600337.685,-27.832,-4.395,50.293,-34.180,-46.387
1584600337.688,-34.668,0.488,47.852,-46.875,23.926
1584600337.692,-24.414,1.953,41.504,31.250,87.402
1584600337.696,-27.832,-5.371,46.875,46.875,9.766
1584600337.700,-42.480,-2.930,50.293,-35.645,-36.133
1584600337.704,-44.434,-0.488,47.852,-65.918,-0.977
1584600337.708,-30.762,-5.859,53.223,7.812,34.668
1584600337.712,-30.273,-10.254,59.082,54.688,58.105
1584600337.716,-47.852,-11.230,60.059,-4.883,8.789
1584600337.720,-60.059,-16.602,57.129,-64.453,-21.973
1584600337.724,-41.504,-12.207,59.570,-7.812,-22.949
1584600337.727,-20.996,-2.930,72.266,72.754,-27.344
1584600337.731,-32.227,-8.789,69.336,41.504,-25.391
1584600337.735,-55.664,-21.484,58.105,-41.016,30.762
1584600337.739,-45.410,-19.531,59.082,-19.043,15.625
1584600337.743,-21.973,-13.672,58.594,67.383,-39.062
1584600337.747,-34.668,-15.625,58.594,58.105,6.348
1584600337.751,-52.734,-9.766,56.152,-26.855,29.785
1584600337.755,-30.762,-15.137,55.664,-27.832,24.414
1584600337.759,-3.418,-16.113,62.500,69.336,27.344
1584600337.763,-13.184,-1.953,61.523,87.402,-13.672
1584600337.767,-31.738,0.977,58.594,0.488,-17.090
1584600337.770,-24.902,7.812,57.129,-35.645,70.801
1584600337.774,-7.324,1.465,53.711,39.551,67.383
1584600337.778,-5.859,-9.766,49.316,90.820,40.527
1584600337.782,-11.719,0.977,49.805,40.527,80.566
1584600337.786,-7.812,13.184,53.711,-13.184,39.062
1584600337.790,3.906,17.578,51.758,27.832,-38.574
1584600337.794,9.277,12.695,44.922,96.191,-28.809
1584600337.798,7.324,4.395,41.504,69.824,5.371
1584600337.802,1.465,11.719,47.363,0.000,30.273
1584600337.806,5.371,16.113,54.688,19.043,78.613
1584600337.810,16.602,7.812,54.688,96.680,23.926
1584600337.813,12.207,8.789,47.852,82.520,26.855
1584600337.817,-8.301,14.160,41.992,-11.230,21.973
1584600337.821,-7.324,14.160,40.527,-26.367,15.137
1584600337.825,9.277,18.066,45.410,69.824,51.270
1584600337.829,19.043,24.902,46.875,108.398,17.090
1584600337.833,10.254,18.555,41.016,31.738,41.992
1584600337.837,11.230,17.090,48.828,-9.766,44.434
1584600337.841,31.738,29.297,60.547,60.547,41.992
1584600337.845,25.879,16.113,47.363,104.980,111.328
1584600337.849,8.789,10.742,38.574,44.922,48.340
1584600337.852,-2.441,14.648,41.992,-19.043,-1.953
1584600337.856,10.742,12.695,44.922,15.137,39.551
1584600337.860,43.457,3.906,52.734,103.516,40.039
1584600337.864,28.320,7.812,44.434,84.961,18.066
1584600337.868,-5.371,27.832,36.133,-8.789,-13.672
1584600337.872,-0.488,30.762,37.109,-8.789,-1.465
1584600337.876,23.438,34.668,41.992,77.637,16.113
1584600337.880,33.691,29.297,46.387,90.820,-3.906
1584600337.884,13.672,19.531,40.527,9.277,54.199
1584600337.888,5.371,21.973,31.250,-14.160,128.906
1584600337.892,33.691,20.020,41.016,71.777,86.914
1584600337.895,34.668,25.879,49.805,108.887,30.762
1584600337.899,16.602,23.438,40.039,38.574,14.648
1584600337.903,22.949,10.254,35.645,-6.836,6.348
1584600337.907,24.902,20.996,43.945,39.551,47.363
1584600337.911,9.277,21.973,42.480,80.078,52.246
1584600337.915,8.789,14.160,39.062,49.805,28.809
1584600337.919,16.602,10.742,37.109,-8.301,55.176
1584600337.923,28.809,34.668,38.574,9.277,20.996
1584600337.927,34.668,50.293,45.898,88.867,5.371
1584600337.931,18.066,22.949,45.898,79.102,37.109
1584600337.935,0.977,16.113,42.969,-3.906,5.371
1584600337.938,-7.324,23.438,33.691,-13.672,-34.180
1584600337.942,0.977,17.578,32.227,59.082,-34.180
1584600337.946,9.277,11.719,38.086,81.543,-4.883
1584600337.950,1.465,12.695,35.645,0.488,-16.602
1584600337.954,8.789,19.043,39.551,-29.785,-0.977
1584600337.958,26.367,20.020,45.410,58.594,57.129
1584600337.962,25.391,18.066,37.598,100.586,90.820
1584600337.966,11.719,13.672,30.762,33.203,61.035
1584600337.970,2.441,15.137,29.785,-24.902,40.527
1584600337.974,9.277,21.973,25.879,20.996,68.848
1584600337.977,16.602,20.508,21.484,83.496,52.734
1584600337.981,17.090,20.508,24.902,55.176,44.434
1584600337.985,10.742,13.672,26.367,-18.066,13.184
1584600337.989,21.484,9.766,29.297,-3.418,-6.836
1584600337.993,36.133,26.367,35.645,75.684,14.160
1584600337.997,19.531,26.367,29.785,64.941,30.762
1584600338.001,0.488,19.043,19.531,-17.578,80.566
1584600338.005,7.812,22.949,16.113,-23.926,54.688
1584600338.009,29.785,21.973,24.414,65.430,16.602
1584600338.013,30.273,20.996,25.391,89.355,19.531
1584600338.017,7.812,31.250,22.949,15.625,-8.301
1584600338.020,0.977,27.832,24.414,-27.344,-8.789
1584600338.024,19.531,23.926,29.297,36.621,0.488
1584600338.028,30.762,24.414,32.715,90.332,-21.973
1584600338.032,22.949,24.414,34.180,34.668,14.160
1584600338.036,14.160,28.320,32.227,-25.391,4.395
1584600338.040,25.879,30.273,31.738,17.090,4.883
1584600338.044,40.039,31.738,39.551,98.145,57.129
1584600338.048,26.367,26.367,36.621,74.219,68.848
1584600338.052,5.859,17.578,23.438,-23.438,52.734
1584600338.056,14.160,23.438,26.367,-13.672,18.066
1584600338.060,28.809,27.832,36.133,84.961,24.414
1584600338.063,22.949,21.973,30.762,75.684,37.598
1584600338.067,4.395,16.602,24.902,-19.531,10.742
1584600338.071,2.441,15.625,28.809,-29.297,51.758
1584600338.075,25.879,17.090,38.574,54.688,49.316
1584600338.079,34.180,26.367,43.457,95.215,26.367
1584600338.083,16.113,24.902,41.992,28.809,9.277
1584600338.087,8.301,19.531,41.016,-27.832,5.859
1584600338.091,17.090,20.508,35.156,25.391,40.039
1584600338.095,21.973,18.066,27.832,85.938,50.293
1584600338.099,10.254,11.719,27.344,42.480,47.363
1584600338.102,-0.977,17.578,29.297,-38.574,-34.668
1584600338.106,16.113,25.879,28.809,-6.348,-30.273
1584600338.110,33.203,27.832,28.320,75.195,49.316
1584600338.114,18.555,29.297,28.320,53.711,62.988
1584600338.118,6.348,25.879,28.320,-17.090,10.742
1584600338.122,17.578,28.809,34.180,-3.418,-20.996
1584600338.126,28.809,35.156,32.715,68.848,4.883
1584600338.130,31.738,38.574,31.250,76.172,20.508
1584600338.134,15.137,36.133,29.785,-3.906,66.895
1584600338.138,0.977,21.484,24.902,-36.621,45.410
1584600338.142,19.531,16.602,24.902,36.133,9.766
1584600338.145,31.250,26.367,28.320,79.102,29.785
1584600338.149,17.578,27.832,30.762,15.137,20.020
1584600338.153,15.625,27.832,36.133,-34.668,-20.508
1584600338.157,30.762,37.109,44.434,30.762,-34.668
1584600338.161,35.156,29.297,43.457,96.191,7.324
1584600338.165,17.578,22.949,35.645,45.898,18.066
1584600338.169,6.348,38.086,31.738,-32.227,46.387
1584600338.173,16.113,41.992,30.762,-6.836,125.488
1584600338.177,35.156,34.180,23.438,77.637,61.035
1584600338.181,39.062,24.902,23.926,67.383,47.852
1584600338.185,8.301,26.855,30.273,-15.137,64.941
1584600338.188,-5.859,31.738,27.832,-33.203,8.789
1584600338.192,7.812,33.203,30.762,42.480,-0.977
1584600338.196,11.230,30.273,33.691,73.730,-20.508
1584600338.200,4.883,21.973,35.645,3.906,31.250
1584600338.204,4.395,20.996,38.574,-27.832,67.871
1584600338.208,20.996,27.344,41.504,39.062,41.992
1584600338.212,32.715,28.809,44.434,95.703,20.020
1584600338.216,18.066,28.809,40.039,38.086,-21.973
1584600338.220,7.812,26.855,35.645,-29.297,1.953
1584600338.224,22.949,30.273,39.062,24.414,39.551
1584600338.227,30.762,31.738,42.480,85.938,30.762
1584600338.231,10.742,17.578,34.668,42.480,28.809
1584600338.235,-0.488,20.020,33.691,-23.926,39.062
1584600338.239,13.672,22.949,38.086,2.441,-8.301
1584600338.243,20.996,14.648,33.203,77.148,9.766
1584600338.247,13.672,22.949,28.320,75.684,70.312
1584600338.251,-0.977,26.367,27.832,-5.371,55.176
1584600338.255,8.789,26.367,32.715,-21.973,8.789
1584600338.259,26.855,27.344,32.715,55.664,21.484
1584600338.263,29.785,34.668,38.574,100.098,45.898
1584600338.267,23.926,35.645,43.457,35.156,47.363
1584600338.270,15.625,24.902,33.691,-22.949,16.602
1584600338.274,29.785,27.344,29.297,39.062,50.781
1584600338.278,31.738,31.738,27.832,87.891,82.031
1584600338.282,14.160,24.414,25.879,29.785,5.371
1584600338.286,14.648,25.391,31.738,-23.438,3.418
1584600338.290,24.902,34.180,33.691,20.020,18.555
1584600338.294,25.391,34.180,29.785,87.891,-29.297
1584600338.298,20.020,32.227,28.320,59.082,-24.414
1584600338.302,10.742,24.902,26.367,-18.066,14.648
1584600338.306,21.973,27.344,32.715,-2.930,30.762
1584600338.310,37.598,40.039,40.039,76.660,54.199
1584600338.313,24.414,42.480,36.621,80.566,-1.953
1584600338.317,8.789,37.109,29.785,0.000,18.066
1584600338.321,11.230,27.832,24.902,-27.344,80.078
1584600338.325,21.484,26.367,24.902,43.945,21.973
1584600338.329,21.484,32.227,27.344,77.148,6.348
1584600338.333,12.695,33.691,30.762,18.555,61.523
1584600338.337,8.789,27.344,31.250,-25.879,49.805
1584600338.341,22.461,26.855,37.109,35.645,-6.348
1584600338.345,30.273,35.156,41.504,94.727,-10.254
1584600338.349,19.531,36.621,42.969,48.340,22.461
1584600338.352,10.254,34.668,46.875,-19.043,26.367
1584600338.356,20.508,36.621,39.551,6.836,17.090
1584600338.360,30.762,31.738,31.738,73.242,16.602
1584600338.364,20.508,25.391,28.809,48.828,29.785
1584600338.368,7.324,25.879,29.785,-23.926,91.797
1584600338.372,12.695,32.715,31.250,-20.020,83.984
1584600338.376,21.973,36.133,33.691,66.406,51.270
1584600338.380,18.066,32.715,38.086,79.102,38.086
1584600338.384,4.883,30.762,37.109,-0.488,53.711
1584600338.388,5.859,36.133,41.504,-18.555,48.828
1584600338.392,26.367,39.551,45.410,57.617,45.898
1584600338.395,25.391,37.109,44.434,96.680,29.785
1584600338.399,7.812,34.668,41.992,24.414,1.953
1584600338.403,6.836,36.621,35.645,-32.227,-9.766
1584600338.407,19.531,36.621,36.133,23.926,-33.203
1584600338.411,20.508,33.203,36.621,86.914,4.883
1584600338.415,10.742,36.621,40.527,49.316,74.219
1584600338.419,4.395,40.039,43.457,-27.344,73.242
1584600338.423,17.578,37.598,41.504,-3.418,27.344
1584600338.427,27.344,39.062,39.062,78.613,-22.949
1584600338.431,19.043,39.551,37.109,59.082,-25.879
1584600338.435,5.371,33.203,37.598,-21.973,22.949
1584600338.438,9.277,38.574,41.992,-24.902,22.461
1584600338.442,27.344,48.340,48.340,56.152,49.316
1584600338.446,24.902,46.875,48.828,79.102,83.008
1584600338.450,7.812,40.527,41.504,-0.977,22.949
1584600338.454,9.277,38.086,36.621,-32.227,31.738
1584600338.458,25.879,40.039,36.621,42.480,58.105
1584600338.462,29.785,40.527,38.574,90.820,36.621
1584600338.466,21.973,37.109,39.062,35.645,37.109
1584600338.470,28.320,37.109,41.992,-4.395,40.039
1584600338.474,47.363,50.293,41.016,38.086,29.785
1584600338.477,35.156,58.594,34.180,67.871,13.672
1584600338.481,0.977,49.805,27.832,21.973,61.035
1584600338.485,-11.230,43.945,24.414,-44.434,23.438
1584600338.489,-1.953,41.992,25.879,-28.809,19.531
1584600338.493,21.973,45.898,26.367,60.547,16.602
1584600338.497,24.902,45.898,26.855,74.707,-32.715
1584600338.501,20.508,41.504,32.227,-4.395,27.832
1584600338.505,33.203,45.410,32.715,-18.066,47.852
1584600338.509,34.180,50.293,33.203,67.383,31.250
1584600338.513,27.344,44.922,32.715,86.914,10.742
1584600338.517,15.625,35.156,30.273,5.371,-25.391
1584600338.520,8.301,35.645,36.621,-41.016,-1.953
1584600338.524,25.879,45.898,44.434,32.715,14.648
1584600338.528,33.203,44.922,44.922,98.633,48.828
1584600338.532,21.973,34.180,41.992,40.039,58.594
1584600338.536,23.438,38.086,45.898,-21.973,8.301
1584600338.540,41.016,52.734,49.805,33.203,8.301
1584600338.544,41.504,53.711,38.086,98.633,73.730
1584600338.548,25.391,41.992,25.879,55.664,30.273
1584600338.552,9.766,41.992,21.973,-22.949,-30.273
1584600338.556,9.277,39.062,23.926,-13.672,22.949
1584600338.560,25.391,39.062,33.203,71.777,62.500
1584600338.563,22.949,39.062,31.738,73.242,70.801
1584600338.567,3.906,27.344,26.855,-15.137,30.273
1584600338.571,0.977,28.809,29.785,-29.785,2.441
1584600338.575,14.648,32.227,31.738,57.617,33.691
1584600338.579,20.020,29.297,32.227,101.074,91.309
1584600338.583,7.812,29.297,30.273,32.715,60.059
1584600338.587,1.465,30.273,26.855,-29.297,-4.883
1584600338.591,20.508,33.691,30.273,31.250,5.371
1584600338.595,38.086,32.715,32.227,107.422,39.062
1584600338.599,27.832,26.367,29.785,60.059,67.871
1584600338.602,1.465,21.973,24.414,-21.484,24.414
1584600338.606,14.160,24.902,27.344,13.184,41.504
1584600338.610,35.156,29.785,28.809,92.773,34.668
1584600338.614,26.367,20.996,24.414,74.219,24.902
1584600338.618,5.859,10.254,18.066,-17.090,67.383
1584600338.622,5.371,16.602,12.695,-20.508,11.230
1584600338.626,20.508,23.926,18.555,62.012,44.922
1584600338.630,19.043,18.555,23.926,78.613,40.527
1584600338.634,-0.977,21.973,20.508,11.719,52.246
1584600338.638,2.930,34.180,20.996,-17.578,73.730
1584600338.642,27.832,39.551,28.320,60.059,31.250
1584600338.645,22.949,24.902,25.879,102.051,28.809
1584600338.649,8.789,17.090,22.461,36.133,-8.789
1584600338.653,6.348,21.973,25.391,-23.438,18.555
1584600338.657,10.254,22.949,17.578,22.461,10.742
1584600338.661,23.438,25.879,16.602,89.355,-14.160
1584600338.665,14.160,20.020,19.043,48.340,3.418
1584600338.669,-1.465,11.230,14.648,-29.297,-6.348
1584600338.673,20.020,18.555,21.484,4.395,8.301
1584600338.677,34.180,29.785,27.832,96.191,11.230
1584600338.681,25.879,22.949,20.020,71.777,30.273
1584600338.685,10.742,18.555,15.625,-16.602,42.480
1584600338.688,10.254,19.043,19.531,-16.113,24.414
1584600338.692,22.949,17.578,18.066,66.895,20.996
1584600338.696,23.438,21.973,13.672,84.473,4.883
1584600338.700,7.812,16.113,11.230,2.930,24.902
1584600338.704,5.859,19.531,12.695,-23.926,-5.371
1584600338.708,19.531,28.809,20.996,38.574,37.598
1584600338.712,12.207,26.855,23.438,77.148,71.777
1584600338.716,-7.812,23.438,13.672,17.090,15.137
1584600338.720,-13.184,19.043,10.742,-41.992,51.758
1584600338.724,4.395,15.625,18.066,8.301,34.668
1584600338.727,20.996,16.602,20.996,82.031,-4.883
1584600338.731,11.719,22.461,18.066,52.246,26.855
1584600338.735,-7.324,19.531,13.184,-37.109,3.906
1584600338.739,2.441,19.043,14.648,-28.320,30.273
1584600338.743,24.902,25.391,20.020,49.316,64.453
1584600338.747,29.785,26.367,25.879,57.617,12.695
1584600338.751,15.625,26.367,25.391,-7.324,19.531
1584600338.755,11.230,28.809,23.926,-21.484,56.641
1584600338.759,29.785,34.180,27.832,59.570,10.254
1584600338.763,28.320,27.832,29.785,92.285,16.602
1584600338.767,4.883,19.531,25.391,16.113,57.617
1584600338.770,2.441,27.344,21.973,-34.668,-10.742
1584600338.774,12.207,30.273,23.926,24.902,-19.043
1584600338.778,12.695,29.785,26.855,86.914,66.406
1584600338.782,3.418,28.320,27.832,40.527,69.824
1584600338.786,-3.906,22.461,25.879,-36.621,47.363
1584600338.790,8.301,23.926,27.344,-0.977,40.039
1584600338.794,18.555,29.785,29.297,81.055,35.156
1584600338.798,14.648,32.715,30.762,53.711,68.848
1584600338.802,5.859,36.621,27.832,-20.508,3.418
1584600338.806,8.301,41.016,30.762,-18.066,-36.133
1584600338.810,19.043,37.598,31.738,64.453,42.480
1584600338.813,14.160,26.367,22.949,80.078,22.949
1584600338.817,-2.930,23.438,17.578,-13.184,37.598
1584600338.821,-3.906,26.367,20.020,-42.969,35.156
1584600338.825,15.137,29.785,22.461,42.969,3.418
1584600338.829,32.227,31.250,25.391,87.402,28.320
1584600338.833,23.438,29.297,27.832,24.414,16.602
1584600338.837,5.859,26.855,26.855,-34.180,17.090
1584600338.841,11.230,30.273,32.227,13.672,-15.137
1584600338.845,24.902,30.273,35.645,80.566,6.348
1584600338.849,14.648,27.344,31.738,34.180,2.930
1584600338.852,4.883,34.180,32.715,-37.598,9.277
1584600338.856,10.254,33.203,31.250,-7.812,28.320
1584600338.860,22.949,26.855,28.809,71.777,37.109
1584600338.864,20.020,23.926,28.320,56.641,83.984
1584600338.868,6.348,24.902,28.320,-20.996,76.172
1584600338.872,16.602,28.320,34.180,-11.719,58.105
1584600338.876,29.297,28.809,36.621,71.289,62.012
1584600338.880,18.555,26.855,31.250,75.195,18.555
1584600338.884,3.418,26.367,23.926,-10.254,-15.625
1584600338.888,6.836,26.367,21.973,-43.945,-10.254
1584600338.892,22.461,29.297,22.949,34.180,42.969
1584600338.895,26.367,27.344,26.855,81.055,52.734
1584600338.899,14.648,18.555,31.738,16.113,86.914
1584600338.903,14.160,22.461,29.785,-37.598,53.223
1584600338.907,20.508,36.133,28.320,12.207,-49.316
1584600338.911,19.531,35.645,29.785,78.613,-6.836
1584600338.915,14.648,30.273,27.344,47.852,37.109
1584600338.919,6.348,28.320,23.926,-25.391,-8.301
1584600338.923,17.578,29.297,28.809,0.977,12.695
1584600338.927,31.250,27.344,29.297,77.637,46.387
1584600338.931,20.996,28.320,23.926,57.617,3.906
1584600338.935,1.953,29.785,19.043,-22.461,44.434
1584600338.938,2.930,26.367,17.578,-32.227,27.832
1584600338.942,17.578,29.785,21.973,47.363,-19.531
1584600338.946,24.902,35.156,26.855,81.055,56.152
1584600338.950,11.230,28.809,24.902,5.371,64.941
1584600338.954,-0.977,24.902,20.020,-36.621,30.762
1584600338.958,12.695,27.344,23.438,36.621,21.973
1584600338.962,25.391,31.738,31.250,92.773,7.324
1584600338.966,15.137,32.227,32.715,37.598,20.508
1584600338.970,2.930,26.367,30.273,-31.250,44.434
1584600338.974,16.602,25.879,29.785,10.254,69.824
1584600338.977,25.391,26.367,29.785,83.496,29.785
1584600338.981,16.113,27.344,31.250,51.270,8.789
1584600338.985,9.277,30.762,36.621,-21.973,34.668
1584600338.989,12.695,28.320,35.645,-1.953,48.340
1584600338.993,30.762,19.531,36.133,89.844,41.992
1584600338.997,43.945,16.113,42.480,105.957,25.391
1584600339.001,16.602,23.438,34.668,-0.488,-3.906
1584600339.005,3.418,28.809,24.902,-40.039,7.324
1584600339.009,20.020,27.344,26.855,45.898,2.441
1584600339.013,20.020,31.738,28.809,77.637,15.625
1584600339.017,9.277,34.180,29.297,1.953,15.137
1584600339.020,6.836,31.738,33.203,-43.945,48.828
1584600339.024,25.879,36.133,33.203,28.320,83.496
1584600339.028,35.156,34.668,28.809,82.031,24.414
1584600339.032,15.625,23.926,28.809,25.879,4.883
1584600339.036,10.254,25.879,28.809,-33.203,20.020
1584600339.040,27.832,31.738,29.785,6.836,23.438
1584600339.044,36.133,29.297,27.832,75.684,-26.855
1584600339.048,27.832,31.738,28.320,60.547,-61.035
1584600339.052,20.508,32.715,29.785,-17.090,28.809
1584600339.056,26.367,31.250,25.879,-18.066,36.133
1584600339.060,38.086,32.715,27.344,70.801,-34.180
1584600339.063,31.738,25.391,24.414,80.078,11.230
1584600339.067,7.812,19.531,17.578,-2.930,68.359
1584600339.071,10.254,23.438,22.461,-24.414,21.973
1584600339.075,32.715,29.297,28.809,50.781,36.133
1584600339.079,35.645,29.785,26.855,85.449,74.707
1584600339.083,25.391,26.367,25.391,26.855,56.641
1584600339.087,18.555,26.855,26.367,-25.391,56.152
1584600339.091,21.973,28.809,22.949,21.484,61.523
1584600339.095,25.879,30.273,20.020,86.914,56.641
1584600339.099,22.949,30.273,19.043,48.828,20.020
1584600339.102,19.043,28.809,20.508,-19.043,-37.598
1584600339.106,27.832,23.926,22.461,10.742,-67.383
1584600339.110,37.598,30.273,24.902,92.773,-10.254
1584600339.114,29.297,33.691,22.949,82.520,-0.977
1584600339.118,13.672,24.414,15.625,-1.465,-38.574
1584600339.122,20.020,24.902,18.555,-8.789,12.695
1584600339.126,35.156,31.738,25.879,80.078,13.184
1584600339.130,38.086,35.645,23.438,103.027,28.320
1584600339.134,21.484,25.879,19.531,20.996,25.879
1584600339.138,15.625,20.508,19.531,-16.113,9.766
1584600339.142,30.762,27.832,25.879,51.758,23.926
1584600339.145,30.762,30.273,31.738,97.656,1.953
1584600339.149,16.113,24.414,27.832,33.691,44.434
1584600339.153,10.742,26.855,25.391,-24.902,44.434
1584600339.157,19.043,33.691,28.809,24.902,-18.066
1584600339.161,25.879,29.785,33.203,87.891,8.789
1584600339.165,18.555,24.902,34.668,46.387,8.789
1584600339.169,11.719,22.461,30.273,-32.715,19.043
1584600339.173,20.996,23.438,27.344,-7.324,31.738
1584600339.177,25.391,23.438,29.785,72.266,-1.465
1584600339.181,21.484,20.508,32.227,65.918,20.996
1584600339.185,20.020,25.391,37.109,-5.859,77.148
1584600339.188,17.090,25.391,35.156,-18.555,62.988
1584600339.192,21.973,20.508,33.691,53.711,17.090
1584600339.196,22.949,21.484,35.156,73.730,-33.691
1584600339.200,15.625,17.578,37.109,2.441,-3.906
1584600339.204,14.648,16.113,38.086,-35.156,8.301
1584600339.208,27.832,23.438,38.574,28.320,13.672
1584600339.212,33.691,25.879,41.992,77.148,33.691
1584600339.216,24.902,20.508,40.039,23.438,1.465
1584600339.220,21.484,20.508,38.574,-33.203,-4.395
1584600339.224,26.367,24.414,35.645,7.812,-18.066
1584600339.227,32.227,27.344,32.227,73.730,41.016
1584600339.231,25.879,29.297,35.645,51.758,54.688
1584600339.235,19.531,27.344,35.645,-14.648,43.945
1584600339.239,25.391,27.832,31.250,-3.418,51.270
1584600339.243,38.086,30.762,35.156,75.684,41.992
1584600339.247,38.574,35.645,39.062,79.102,60.547
1584600339.251,27.344,28.320,34.668,0.977,-29.297
1584600339.255,25.879,20.996,32.715,-12.695,-15.625
1584600339.259,35.156,29.297,37.109,60.059,45.898
1584600339.263,36.133,31.250,37.109,85.449,-8.301
1584600339.267,30.762,26.855,33.203,20.020,30.273
1584600339.270,24.414,25.391,29.297,-27.832,76.172
1584600339.274,25.391,26.855,28.320,26.855,46.387
1584600339.278,30.273,25.391,30.273,80.078,30.762
1584600339.282,26.367,27.344,28.809,36.133,16.602
1584600339.286,23.438,25.391,25.879,-21.973,45.898
1584600339.290,26.367,20.996,28.320,15.625,31.738
1584600339.294,36.133,22.949,28.320,87.402,9.766
1584600339.298,32.715,22.949,29.297,70.801,39.062
1584600339.302,15.625,19.043,27.832,-2.930,-1.465
1584600339.306,15.137,20.996,27.832,-1.953,-25.879
1584600339.310,30.762,27.832,30.762,81.055,-0.977
1584600339.313,32.715,28.320,31.250,89.355,42.969
1584600339.317,17.578,26.367,28.320,13.184,55.664
1584600339.321,24.902,27.344,20.996,0.488,33.691
1584600339.325,48.828,27.344,18.066,77.148,41.992
1584600339.329,26.855,25.391,20.508,92.773,-28.809
1584600339.333,-15.625,21.484,22.461,11.719,-38.086
1584600339.337,-18.066,20.020,25.391,-26.855,14.160
1584600339.341,10.742,23.438,31.250,36.621,30.273
1584600339.345,25.391,21.484,35.156,90.332,12.695
1584600339.349,9.277,20.996,34.668,47.852,33.203
1584600339.352,-9.277,18.555,37.109,-19.531,99.121
1584600339.356,-1.953,14.160,39.062,-0.488,54.199
1584600339.360,19.531,19.531,41.504,68.359,9.766
1584600339.364,15.625,23.926,38.086,59.082,49.316
1584600339.368,-5.371,21.973,33.203,-10.742,22.461
1584600339.372,-3.418,26.367,37.109,-17.578,-23.926
1584600339.376,14.648,29.785,34.668,50.781,15.625
1584600339.380,18.555,24.902,31.738,70.312,58.594
1584600339.384,8.301,22.949,32.227,11.230,83.496
1584600339.388,3.418,23.438,31.738,-21.973,56.641
1584600339.392,20.996,28.320,33.203,37.109,35.156
1584600339.395,28.809,29.785,36.133,83.008,49.316
1584600339.399,11.230,27.832,37.109,32.227,12.695
1584600339.403,5.859,26.367,33.203,-24.414,32.715
1584600339.407,17.090,25.391,36.621,18.555,46.875
1584600339.411,25.879,26.855,41.992,83.008,-35.645
1584600339.415,17.090,25.879,36.133,56.152,-24.902
1584600339.419,-3.418,23.438,31.738,-8.789,7.324
1584600339.423,4.395,27.832,38.086,9.766,16.113
1584600339.427,27.344,30.762,42.969,88.379,42.480
1584600339.431,20.020,27.344,38.574,83.984,62.988
1584600339.435,3.906,26.367,34.180,11.719,63.965
1584600339.438,16.113,25.879,34.180,0.000,37.598
1584600339.442,34.180,26.367,33.691,62.988,61.035
1584600339.446,29.785,25.879,33.691,86.426,42.480
1584600339.450,10.254,26.367,33.691,23.438,6.836
1584600339.454,6.836,27.344,35.156,-11.719,2.441
1584600339.458,33.203,31.250,37.109,56.152,40.527
1584600339.462,44.922,35.645,36.133,105.469,24.902
1584600339.466,20.020,31.738,33.691,55.176,-10.254
1584600339.470,2.930,29.785,30.762,-1.465,-53.711
1584600339.474,26.367,34.668,34.180,34.668,-58.105
1584600339.477,49.316,33.203,38.086,89.355,-23.926
1584600339.481,35.156,27.344,34.180,65.430,26.367
1584600339.485,11.719,23.926,31.250,6.348,47.363
1584600339.489,20.508,32.227,32.227,8.789,22.949
1584600339.493,40.039,35.156,32.227,65.918,-10.742
1584600339.497,33.691,31.250,33.203,70.312,45.410
1584600339.501,6.836,29.785,32.227,7.324,40.527
1584600339.505,7.324,28.320,31.738,-15.137,5.371
1584600339.509,29.297,30.273,33.203,48.828,21.973
1584600339.513,24.902,32.227,34.180,78.125,70.801
1584600339.517,-3.906,30.273,33.203,20.996,57.129
1584600339.520,-12.207,28.320,30.273,-18.555,36.133
1584600339.524,12.695,31.250,35.156,29.785,32.227
1584600339.528,24.902,32.715,41.992,79.102,62.012
1584600339.532,0.488,28.320,40.527,39.551,18.555
1584600339.536,-22.461,24.902,37.598,-20.020,-37.598
1584600339.540,-5.859,26.367,37.109,3.906,31.250
1584600339.544,13.184,29.785,37.109,68.359,63.965
1584600339.548,-4.395,29.297,34.668,54.199,11.230
1584600339.552,-24.902,26.855,35.645,-13.672,14.160
1584600339.556,-9.766,29.785,38.086,-10.254,18.555
1584600339.560,17.578,37.109,37.598,60.059,6.348
1584600339.563,16.602,39.551,35.156,69.824,39.551
1584600339.567,-5.859,33.691,36.133,3.906,48.340
1584600339.571,-8.301,32.227,36.621,-24.414,75.684
1584600339.575,15.625,36.133,35.156,41.992,93.750
1584600339.579,23.926,36.133,33.203,81.543,71.777
1584600339.583,2.441,32.715,34.668,20.020,48.828
1584600339.587,-7.324,29.785,38.574,-28.809,21.484
1584600339.591,15.625,34.180,34.668,19.531,-16.113
1584600339.595,32.715,37.109,31.738,79.590,-5.371
1584600339.599,13.672,33.203,32.715,41.016,42.969
1584600339.602,-4.883,29.785,32.227,-25.391,51.270
1584600339.606,10.742,32.227,37.109,4.883,16.113
1584600339.610,30.273,35.645,39.551,76.660,42.969
1584600339.614,20.020,34.180,34.180,60.547,35.156
1584600339.618,-7.324,33.203,27.344,-8.301,33.691
1584600339.622,2.441,34.180,26.855,-10.254,35.156
1584600339.626,33.203,37.598,28.809,62.988,18.066
1584600339.630,35.645,40.039,30.762,81.543,23.438
1584600339.634,10.742,38.086,32.227,15.137,61.035
1584600339.638,-2.441,37.598,34.180,-18.066,19.043
1584600339.642,19.531,40.527,33.691,38.574,-12.207
1584600339.645,34.668,41.504,32.227,82.031,44.922
1584600339.649,18.066,42.480,32.715,41.992,-2.441
1584600339.653,16.602,42.480,32.715,4.395,0.488
1584600339.657,35.645,43.457,36.133,41.992,41.016
1584600339.661,29.785,45.898,38.574,76.172,62.500
1584600339.665,3.418,45.410,35.156,38.086,8.301
1584600339.669,-10.254,41.992,36.621,-15.137,-18.555
1584600339.673,11.719,44.922,45.898,1.953,1.465
1584600339.677,41.992,47.852,44.922,72.754,31.738
1584600339.681,35.156,45.898,35.645,73.730,28.320
1584600339.685,5.371,43.457,32.227,3.418,4.883
1584600339.688,5.859,46.387,33.691,-20.508,15.137
1584600339.692,31.250,53.223,35.645,40.527,-5.371
1584600339.696,31.738,50.781,38.574,72.754,-25.391
1584600339.700,4.395,42.480,38.574,12.207,-7.812
1584600339.704,-3.418,43.457,38.086,-24.902,-8.301
1584600339.708,23.438,49.316,41.504,33.203,-8.789
1584600339.712,33.691,49.805,43.457,80.078,10.742
1584600339.716,11.719,46.387,38.086,34.668,8.789
1584600339.720,0.488,44.434,33.203,-17.578,5.371
1584600339.724,21.973,46.387,32.227,10.254,25.391
1584600339.727,42.480,47.363,29.785,70.312,81.055
1584600339.731,24.902,46.875,24.902,51.758,53.711
1584600339.735,0.000,46.387,23.438,-20.020,14.648
1584600339.739,11.719,48.340,31.250,-11.230,46.387
1584600339.743,31.738,49.316,39.551,70.801,85.938
1584600339.747,24.902,47.363,36.133,74.707,33.203
1584600339.751,4.883,42.480,28.809,0.000,20.996
1584600339.755,13.672,44.434,31.738,-16.602,28.320
1584600339.759,39.062,44.922,34.668,43.945,41.504
1584600339.763,42.969,40.039,30.762,78.125,64.453
1584600339.767,16.602,35.156,25.879,26.367,18.555
1584600339.770,-0.977,34.668,28.320,-17.090,11.719
1584600339.774,24.902,40.039,34.180,37.109,23.926
1584600339.778,38.086,41.016,31.738,85.449,47.852
1584600339.782,14.160,35.645,27.344,38.574,20.020
1584600339.786,-2.441,32.715,28.320,-10.254,12.695
1584600339.790,20.020,34.180,29.785,21.484,19.531
1584600339.794,41.016,36.133,30.762,81.055,7.812
1584600339.798,25.391,33.691,30.273,62.012,38.574
1584600339.802,-0.488,31.250,31.250,-7.812,16.113
1584600339.806,10.742,37.109,33.691,-1.465,5.371
1584600339.810,41.016,41.504,33.203,69.336,40.527
1584600339.813,36.133,36.133,34.180,79.102,-18.555
1584600339.817,4.883,32.227,31.250,15.625,2.441
1584600339.821,7.324,32.715,29.785,-9.766,61.035
1584600339.825,38.086,36.133,31.738,44.922,45.410
1584600339.829,40.527,37.598,32.227,82.031,47.363
1584600339.833,14.648,30.273,30.762,34.668,13.672
1584600339.837,3.418,26.367,32.715,-14.648,-5.371
1584600339.841,28.320,32.715,35.156,29.297,46.875
1584600339.845,47.852,33.691,36.133,83.496,57.617
1584600339.849,22.461,29.297,27.344,45.410,70.801
1584600339.852,0.488,27.344,19.043,-15.625,73.242
1584600339.856,22.949,27.344,25.879,3.418,38.574
1584600339.860,44.922,29.785,28.320,72.266,38.574
1584600339.864,27.832,28.320,28.809,65.430,20.508
1584600339.868,-3.906,23.926,30.273,-8.789,-9.277
1584600339.872,1.953,23.438,31.250,-15.137,0.977
1584600339.876,32.715,26.367,36.133,55.664,56.641
1584600339.880,28.809,23.438,37.109,71.777,46.875
1584600339.884,-1.953,21.973,34.180,10.254,20.996
1584600339.888,-5.371,28.320,34.668,-17.578,38.574
1584600339.892,24.414,30.273,37.109,42.969,9.277
1584600339.895,32.227,29.785,30.762,81.543,23.926
1584600339.899,3.906,26.855,26.367,27.344,38.574
1584600339.903,-7.812,27.344,29.785,-20.020,43.945
1584600339.907,21.484,31.738,33.203,20.508,54.199
1584600339.911,32.715,26.855,29.785,72.754,29.297
1584600339.915,6.348,19.531,24.902,40.039,29.297
