timestamps,TP9,AF7,AF8,TP10,Right AUX
1584598275.048,6.348,42.969,48.340,-80.566,13.672
1584598275.052,415.039,78.125,79.590,817.871,40.527
1584598275.056,164.551,83.984,91.797,360.840,59.570
1584598275.060,-298.828,62.012,75.195,-657.227,85.938
1584598275.063,-114.258,65.918,71.777,-352.539,58.105
1584598275.067,379.883,93.262,92.285,704.590,5.371
1584598275.071,294.922,94.238,97.168,609.375,17.090
1584598275.075,-226.562,65.430,80.566,-476.074,46.387
1584598275.079,-246.582,55.664,67.871,-621.094,26.855
1584598275.083,271.973,76.660,79.102,466.309,9.766
1584598275.087,375.000,86.914,89.844,782.227,0.000
1584598275.091,-95.703,69.336,79.102,-184.570,0.488
1584598275.095,-321.289,49.805,62.988,-736.816,10.742
1584598275.099,128.906,61.035,71.777,163.086,43.945
1584598275.102,416.504,78.613,83.984,833.984,57.617
1584598275.106,46.875,69.336,76.660,123.047,36.621
1584598275.110,-342.773,48.828,62.012,-738.770,75.684
1584598275.114,-25.391,50.293,62.988,-159.180,25.879
1584598275.118,398.438,67.871,70.801,760.254,7.812
1584598275.122,179.688,65.918,69.336,386.719,25.391
1584598275.126,-316.406,43.457,53.223,-653.809,-32.227
1584598275.130,-184.570,37.109,48.828,-463.379,-41.016
1584598275.134,333.008,58.105,66.895,621.582,11.719
1584598275.138,300.781,67.871,72.754,639.160,11.719
1584598275.142,-211.914,48.828,58.105,-414.551,-3.418
1584598275.145,-296.875,32.715,45.898,-669.434,28.809
1584598275.149,208.984,52.246,59.082,365.723,28.809
1584598275.153,374.023,68.359,71.289,776.367,-6.836
1584598275.157,-80.078,49.805,61.523,-123.047,20.996
1584598275.161,-361.328,25.879,44.434,-772.461,38.574
1584598275.165,63.477,40.527,46.387,36.133,36.621
1584598275.169,393.066,61.523,62.988,795.898,23.926
1584598275.173,60.547,51.758,64.941,182.129,12.207
1584598275.177,-363.770,31.250,45.410,-754.395,71.289
1584598275.181,-92.285,35.645,44.434,-261.230,83.008
1584598275.185,370.605,58.105,63.965,739.746,75.684
1584598275.188,202.637,56.641,68.359,470.215,43.945
1584598275.192,-302.734,34.668,53.711,-600.586,49.805
1584598275.196,-223.145,26.855,42.480,-540.527,62.012
1584598275.200,299.316,47.363,52.246,553.223,48.828
1584598275.204,313.965,58.594,60.547,674.316,31.738
1584598275.208,-190.918,34.668,48.828,-362.305,-11.719
1584598275.212,-327.148,21.484,39.551,-722.656,-26.367
1584598275.216,160.156,44.434,51.758,271.484,14.648
1584598275.220,367.676,58.594,65.430,794.434,22.461
1584598275.224,-49.805,43.945,56.152,-40.527,6.348
1584598275.227,-367.188,25.391,35.156,-782.227,9.766
1584598275.231,25.391,38.574,38.574,-32.715,37.598
1584598275.235,397.949,61.035,55.664,797.852,50.781
1584598275.239,105.957,55.664,55.176,267.090,27.344
1584598275.243,-355.957,27.832,35.645,-729.492,40.039
1584598275.247,-137.695,28.320,32.715,-353.027,57.617
1584598275.251,348.633,52.246,51.758,687.012,72.754
1584598275.255,228.027,54.688,58.594,529.785,84.961
1584598275.259,-285.156,30.273,43.457,-546.875,48.828
1584598275.263,-270.020,22.461,33.203,-608.398,39.062
1584598275.267,257.324,46.387,47.363,478.516,11.230
1584598275.270,330.566,54.688,59.570,705.078,6.836
1584598275.274,-159.180,38.574,52.734,-285.645,50.293
1584598275.278,-341.309,23.438,40.039,-747.070,22.949
1584598275.282,125.977,34.180,41.504,190.430,-29.297
1584598275.286,379.883,51.758,52.246,792.480,-3.418
1584598275.290,-13.672,41.992,48.340,34.668,74.219
1584598275.294,-381.348,15.137,30.273,-780.762,94.238
1584598275.298,-33.691,20.020,30.273,-129.395,39.551
1584598275.302,375.977,47.363,45.410,765.137,50.293
1584598275.306,132.324,47.363,46.387,329.102,79.590
1584598275.310,-343.262,21.973,29.785,-700.684,31.738
1584598275.313,-173.340,17.578,25.879,-437.012,-16.113
1584598275.317,323.242,44.922,46.875,632.812,8.789
1584598275.321,258.789,53.223,52.246,577.148,45.898
1584598275.325,-248.047,28.320,33.203,-483.887,25.391
1584598275.329,-292.969,14.160,22.461,-657.715,23.926
1584598275.333,218.262,35.645,37.598,398.438,32.227
1584598275.337,344.238,50.781,51.270,739.746,18.066
1584598275.341,-115.234,34.668,43.945,-196.289,33.691
1584598275.345,-354.980,16.113,27.344,-766.602,37.598
1584598275.349,83.008,31.250,33.691,103.516,7.812
1584598275.352,383.789,53.223,46.875,799.805,12.695
1584598275.356,33.203,42.969,43.945,126.465,-10.742
1584598275.360,-365.723,21.484,28.320,-774.414,7.324
1584598275.364,-62.988,28.809,28.809,-224.609,37.598
1584598275.368,373.535,51.758,43.945,750.977,41.016
1584598275.372,168.945,49.316,46.387,416.992,37.598
1584598275.376,-325.195,22.949,31.738,-644.531,5.371
1584598275.380,-212.402,21.484,25.879,-498.535,-21.973
1584598275.384,301.758,43.945,42.969,587.891,-3.418
1584598275.388,286.621,50.293,53.223,642.090,49.805
1584598275.392,-220.703,30.762,43.457,-400.391,45.410
1584598275.395,-318.848,15.625,28.809,-695.312,-16.113
1584598275.399,180.176,36.621,34.668,323.242,33.203
1584598275.403,357.910,53.223,46.875,767.578,41.504
1584598275.407,-78.125,39.062,42.480,-115.723,34.180
1584598275.411,-361.816,22.949,29.297,-778.809,65.430
1584598275.415,48.340,35.645,33.691,29.785,29.297
1584598275.419,387.695,56.152,46.875,805.176,15.137
1584598275.423,72.266,47.363,46.387,212.402,18.066
1584598275.427,-363.770,21.973,30.762,-741.699,77.637
1584598275.431,-117.188,19.531,31.250,-287.109,80.566
1584598275.435,343.750,41.016,48.340,714.844,-0.977
1584598275.438,198.730,46.875,51.758,473.633,32.715
1584598275.442,-304.199,21.973,35.645,-594.727,27.344
1584598275.446,-248.535,13.672,28.320,-567.871,7.812
1584598275.450,273.438,38.574,42.480,510.742,60.547
1584598275.454,312.500,54.199,50.781,670.898,70.801
1584598275.458,-183.594,36.621,39.062,-332.031,41.504
1584598275.462,-337.891,17.090,25.391,-729.492,-10.742
1584598275.466,147.949,38.086,37.109,245.117,-14.160
1584598275.470,378.418,59.570,53.223,796.387,49.316
1584598275.474,-40.039,40.527,47.363,-18.066,35.156
1584598275.477,-379.395,14.160,26.367,-791.504,5.371
1584598275.481,-8.301,23.926,29.297,-71.289,7.324
1584598275.485,378.418,49.805,49.805,792.969,53.223
1584598275.489,113.281,45.898,50.293,295.410,81.543
1584598275.493,-353.516,17.090,30.273,-719.727,16.602
1584598275.497,-148.438,18.555,25.879,-379.395,4.395
1584598275.501,343.262,46.875,45.410,675.781,3.418
1584598275.505,243.652,51.758,51.270,540.039,-47.363
1584598275.509,-264.160,26.367,38.574,-529.785,-6.348
1584598275.513,-267.578,17.090,31.250,-620.117,37.598
1584598275.517,247.070,40.039,44.922,454.590,21.484
1584598275.520,329.102,49.316,59.082,728.516,67.871
1584598275.524,-149.414,30.273,48.340,-242.676,31.738
1584598275.528,-345.215,17.090,34.180,-755.859,-33.203
1584598275.532,116.211,37.109,43.945,158.203,-14.648
1584598275.536,379.883,54.688,53.223,795.410,-3.418
1584598275.540,-3.906,38.086,42.480,51.270,7.324
1584598275.544,-371.582,17.578,28.809,-789.551,-2.930
1584598275.548,-38.086,28.809,35.645,-147.461,42.969
1584598275.552,374.023,51.758,52.734,768.555,1.465
1584598275.556,144.531,51.270,54.199,357.910,-19.531
1584598275.560,-332.520,25.391,36.133,-675.781,-13.672
1584598275.563,-179.688,22.949,30.762,-444.824,-14.160
1584598275.567,320.801,46.875,47.852,627.441,20.020
1584598275.571,265.625,51.758,55.664,601.074,16.113
1584598275.575,-242.188,29.297,43.945,-463.867,0.488
1584598275.579,-299.805,16.113,31.250,-677.734,-55.664
1584598275.583,214.355,41.504,45.410,379.883,-16.602
1584598275.587,351.562,57.617,59.082,746.582,20.508
1584598275.591,-109.375,37.598,49.316,-174.316,20.020
1584598275.595,-364.746,14.160,30.762,-770.996,27.344
1584598275.599,60.059,27.832,35.156,74.219,29.297
1584598275.602,381.348,51.758,50.781,801.758,81.543
1584598275.606,47.363,43.945,47.363,147.949,79.590
1584598275.610,-366.211,16.602,29.785,-769.043,23.438
1584598275.614,-83.496,19.531,29.785,-236.328,23.926
1584598275.618,362.305,47.363,47.852,741.211,53.711
1584598275.622,176.758,47.852,54.688,437.500,61.035
1584598275.626,-316.895,21.973,41.504,-623.535,43.945
1584598275.630,-225.098,18.066,30.273,-516.113,25.391
1584598275.634,283.691,43.945,44.434,560.547,40.039
1584598275.638,286.621,54.199,55.664,645.996,44.434
1584598275.642,-208.984,33.691,44.922,-382.812,-7.324
1584598275.645,-323.242,17.090,30.762,-723.633,-1.465
1584598275.649,170.898,37.598,36.133,278.320,41.992
1584598275.653,362.793,57.129,49.805,769.043,18.066
1584598275.657,-72.266,40.039,45.410,-84.473,29.785
1584598275.661,-367.188,19.531,31.250,-772.949,61.523
1584598275.665,39.551,36.133,35.645,10.742,48.340
1584598275.669,382.812,57.617,50.293,792.969,6.836
1584598275.673,69.336,45.898,52.246,217.285,17.090
1584598275.677,-367.676,16.602,35.645,-745.117,24.414
1584598275.681,-123.047,18.066,32.227,-317.383,41.016
1584598275.685,342.773,41.992,47.363,695.801,51.758
1584598275.688,204.102,44.434,51.758,484.863,2.441
1584598275.692,-295.410,24.902,37.109,-578.125,16.602
1584598275.696,-252.441,20.996,26.367,-584.961,31.250
1584598275.700,265.625,44.922,40.527,505.371,22.461
1584598275.704,315.430,53.711,55.176,695.312,41.504
1584598275.708,-171.875,34.180,44.922,-315.918,20.020
1584598275.712,-335.449,20.996,25.391,-741.699,1.465
1584598275.716,134.766,35.156,34.180,225.098,73.242
1584598275.720,370.117,54.199,50.293,796.875,83.496
1584598275.724,-24.902,43.457,45.410,6.836,48.340
1584598275.727,-364.746,20.020,29.297,-774.414,51.270
1584598275.731,-8.301,29.297,30.762,-79.590,78.125
1584598275.735,378.906,50.781,44.434,775.879,75.195
1584598275.739,116.211,50.293,43.945,290.527,71.289
1584598275.743,-350.098,25.391,30.273,-711.914,40.039
1584598275.747,-160.156,20.020,27.344,-401.367,-19.043
1584598275.751,331.055,43.457,41.992,646.484,-32.227
1584598275.755,241.699,48.828,48.828,544.434,-6.348
1584598275.759,-263.672,26.367,38.086,-513.184,-9.277
1584598275.763,-277.344,17.578,27.832,-635.254,-1.465
1584598275.767,234.863,41.016,40.527,428.711,59.082
1584598275.770,335.449,53.711,50.781,728.027,48.828
1584598275.774,-134.766,37.109,39.551,-232.910,-0.977
1584598275.778,-355.469,17.090,24.902,-774.414,20.020
1584598275.782,89.844,29.785,33.203,116.211,85.449
1584598275.786,371.094,51.270,48.340,785.645,66.895
1584598275.790,4.395,39.551,44.922,93.262,40.527
1584598275.794,-380.859,14.160,31.250,-768.555,29.785
1584598275.798,-56.152,25.391,34.180,-172.363,32.715
1584598275.802,370.605,49.316,49.805,756.836,3.418
1584598275.806,149.414,43.945,50.293,365.234,4.883
1584598275.810,-336.426,19.043,33.691,-672.852,55.176
1584598275.813,-199.219,14.160,30.273,-465.820,30.762
1584598275.817,306.641,39.551,45.410,599.121,-32.227
1584598275.821,269.043,48.828,51.758,600.098,13.184
1584598275.825,-243.164,25.391,37.598,-458.008,27.832
1584598275.829,-320.801,12.695,26.855,-707.520,-47.852
1584598275.833,185.059,34.668,39.062,344.238,4.395
1584598275.837,347.656,51.758,52.246,759.766,48.340
1584598275.841,-97.168,37.598,42.480,-145.996,20.508
1584598275.845,-364.258,18.066,24.902,-778.320,48.340
1584598275.849,54.199,33.691,33.203,51.758,33.203
1584598275.852,375.488,51.758,48.340,791.992,6.836
1584598275.856,48.828,42.480,47.363,165.039,30.273
1584598275.860,-371.094,22.461,32.715,-758.789,52.734
1584598275.864,-95.703,25.879,30.273,-259.766,20.020
1584598275.868,357.422,47.363,44.434,724.121,8.789
1584598275.872,188.477,50.293,48.828,434.570,-21.973
1584598275.876,-310.547,32.227,36.133,-617.188,-27.832
1584598275.880,-234.863,23.438,30.762,-532.227,34.180
1584598275.884,280.273,43.945,45.410,545.898,47.852
1584598275.888,294.434,56.152,55.664,660.645,46.875
1584598275.892,-195.801,34.668,47.363,-359.863,20.996
1584598275.895,-326.172,15.625,31.738,-712.891,22.461
1584598275.899,156.738,32.227,37.598,274.902,38.086
1584598275.903,364.746,49.805,52.246,771.484,34.668
1584598275.907,-55.176,38.086,46.875,-68.359,25.879
1584598275.911,-371.582,15.625,27.832,-790.039,1.465
1584598275.915,12.695,25.879,31.250,-45.898,-6.836
1584598275.919,379.395,51.270,48.828,773.926,28.809
1584598275.923,94.727,45.410,49.805,249.512,71.289
1584598275.927,-351.562,20.020,34.180,-718.750,64.941
1584598275.931,-129.883,20.020,30.762,-335.938,-14.160
1584598275.935,348.145,47.363,46.875,689.941,-27.344
1584598275.938,225.586,51.758,52.246,519.531,55.176
1584598275.942,-277.832,24.414,36.621,-552.246,31.250
1584598275.946,-252.930,15.625,29.297,-597.168,-0.977
1584598275.950,261.230,42.480,43.457,484.375,41.992
1584598275.954,322.754,53.223,52.734,707.520,65.918
1584598275.958,-165.039,31.738,40.039,-289.062,61.523
1584598275.962,-345.703,14.648,23.926,-758.789,25.391
1584598275.966,120.605,33.203,33.691,184.570,-8.789
1584598275.970,366.699,52.246,51.270,786.133,56.152
1584598275.974,-17.578,40.527,48.340,22.461,44.434
1584598275.977,-374.023,18.555,29.785,-790.039,10.742
1584598275.981,-25.879,26.855,29.785,-128.418,44.434
1584598275.985,378.418,48.828,49.805,775.879,69.336
1584598275.989,133.301,45.898,50.781,332.520,22.461
1584598275.993,-341.797,20.996,32.227,-686.523,35.156
1584598275.997,-168.945,19.043,31.250,-413.086,44.434
1584598276.001,330.078,42.969,45.410,627.930,-24.414
1584598276.005,250.000,47.363,51.270,551.270,-54.688
1584598276.009,-259.766,26.367,38.574,-504.395,-23.438
1584598276.013,-289.551,13.672,24.902,-657.715,17.578
1584598276.017,218.262,29.297,39.551,398.438,11.719
1584598276.020,329.590,42.969,50.781,715.332,-17.578
1584598276.024,-130.371,30.273,40.527,-223.633,-19.043
1584598276.028,-356.445,13.184,25.879,-768.066,-18.555
1584598276.032,82.031,29.297,34.180,117.676,-9.277
1584598276.036,369.629,48.340,50.781,796.387,-0.488
1584598276.040,18.555,40.039,48.340,114.746,-9.766
1584598276.044,-370.117,17.578,34.180,-749.023,15.625
1584598276.048,-67.871,23.438,29.785,-192.871,56.641
1584598276.052,363.281,46.387,43.945,741.699,65.430
1584598276.056,165.527,42.969,50.293,391.113,80.078
1584598276.060,-318.359,22.461,35.645,-652.832,59.570
1584598276.063,-204.590,19.531,30.762,-494.629,43.945
1584598276.067,299.805,41.016,47.852,579.590,14.648
1584598276.071,282.227,51.758,60.059,628.906,-11.719
1584598276.075,-216.309,32.227,48.340,-406.250,37.109
1584598276.079,-304.688,16.602,33.691,-680.176,41.992
1584598276.083,197.754,40.039,42.480,335.449,23.438
1584598276.087,361.328,58.105,55.664,770.996,25.879
1584598276.091,-87.891,36.621,50.293,-97.656,47.852
1584598276.095,-362.793,16.602,33.203,-764.160,36.133
1584598276.099,46.875,31.250,35.645,31.738,13.184
1584598276.102,381.836,55.176,54.199,801.270,53.711
1584598276.106,69.336,50.293,55.664,205.566,58.594
1584598276.110,-356.445,20.020,36.133,-744.141,33.691
1584598276.114,-97.168,23.438,30.762,-291.016,42.969
1584598276.118,361.816,52.246,48.828,714.355,-3.418
1584598276.122,203.125,55.176,52.246,470.703,-26.855
1584598276.126,-305.176,28.809,34.180,-594.727,-43.457
1584598276.130,-241.699,21.973,25.391,-559.082,-46.387
1584598276.134,278.320,49.805,39.551,522.461,25.391
1584598276.138,304.688,57.129,48.340,668.457,19.531
1584598276.142,-191.895,33.691,38.086,-339.844,35.156
1584598276.145,-336.914,18.066,24.902,-724.609,68.848
1584598276.149,148.926,37.598,35.156,249.023,90.820
1584598276.153,370.117,53.223,47.852,775.879,91.797
1584598276.157,-40.039,39.062,37.598,-49.805,8.789
1584598276.161,-365.234,17.578,23.438,-786.133,-18.555
1584598276.165,6.836,29.297,30.273,-48.340,68.848
1584598276.169,378.906,53.711,46.875,784.668,30.273
1584598276.173,105.469,45.410,47.363,271.484,4.395
1584598276.177,-346.191,20.508,31.250,-711.426,65.430
1584598276.181,-146.973,21.973,26.855,-356.934,57.129
1584598276.185,333.008,46.387,43.945,672.852,37.109
1584598276.188,228.027,50.293,50.781,529.785,10.254
1584598276.192,-273.926,30.273,36.621,-531.738,0.977
1584598276.196,-265.137,21.484,28.320,-607.422,3.906
1584598276.200,245.117,41.504,39.551,448.242,16.602
1584598276.204,323.730,53.223,50.293,695.312,-0.977
1584598276.208,-152.832,34.668,41.992,-254.883,3.418
1584598276.212,-344.238,14.160,27.832,-739.746,37.598
1584598276.216,112.793,27.832,35.156,173.828,61.035
1584598276.220,370.117,49.316,51.270,793.457,32.227
1584598276.224,-8.789,41.992,46.875,58.105,12.207
1584598276.227,-368.652,20.996,30.273,-765.137,40.039
1584598276.231,-32.715,29.785,32.227,-131.836,48.828
1584598276.235,372.070,54.688,47.852,767.090,45.410
1584598276.239,142.578,51.270,52.246,351.562,45.898
1584598276.243,-329.102,22.949,38.086,-671.875,53.711
1584598276.247,-175.781,19.531,33.203,-446.289,47.363
1584598276.251,323.242,45.898,51.270,621.094,45.410
1584598276.255,265.625,52.246,58.594,590.820,50.293
1584598276.259,-239.746,29.297,42.969,-467.773,-7.324
1584598276.263,-286.133,19.531,27.344,-659.180,15.625
1584598276.267,221.680,44.434,39.551,388.184,71.777
1584598276.270,356.934,60.547,53.223,751.465,60.547
1584598276.274,-97.168,40.527,44.922,-174.316,61.035
1584598276.278,-345.703,19.043,29.297,-765.625,74.707
1584598276.282,81.055,36.133,35.645,91.309,73.242
1584598276.286,381.348,54.688,51.270,796.387,25.391
1584598276.290,40.039,38.086,47.852,129.395,19.043
1584598276.294,-365.234,12.695,31.250,-770.508,5.371
1584598276.298,-73.730,25.879,32.715,-222.656,-29.297
1584598276.302,370.117,52.734,47.363,742.188,-4.395
1584598276.306,179.688,49.805,47.852,418.457,6.836
1584598276.310,-311.523,23.926,31.250,-630.371,-16.602
1584598276.313,-219.238,18.555,23.438,-511.230,-20.996
1584598276.317,287.598,40.039,37.109,557.129,19.531
1584598276.321,279.785,46.387,46.387,623.047,-39.062
1584598276.325,-220.215,29.785,34.180,-402.344,-13.184
1584598276.329,-320.312,18.555,20.996,-705.566,20.020
1584598276.333,166.992,33.691,32.227,288.574,-42.480
1584598276.337,345.215,51.270,50.293,752.441,50.293
1584598276.341,-77.637,40.527,44.922,-96.680,45.898
1584598276.345,-364.258,17.578,27.344,-770.508,12.695
1584598276.349,32.227,27.344,32.227,4.883,71.289
1584598276.352,376.465,49.316,47.363,782.715,69.336
1584598276.356,68.359,41.504,47.852,220.703,8.789
1584598276.360,-363.281,16.602,29.785,-734.375,19.531
1584598276.364,-116.699,22.461,25.879,-306.641,78.125
1584598276.368,340.820,49.316,45.898,704.102,102.051
1584598276.372,194.824,50.293,50.781,486.816,75.684
1584598276.376,-303.223,23.926,32.227,-577.637,21.973
1584598276.380,-254.395,13.672,22.461,-575.195,-2.441
1584598276.384,261.230,40.039,38.086,498.535,-26.367
1584598276.388,308.105,52.246,49.316,680.664,-11.230
1584598276.392,-175.293,30.273,38.574,-312.988,38.086
1584598276.395,-331.543,11.719,23.926,-737.305,45.410
1584598276.399,138.672,33.691,31.738,211.914,19.043
1584598276.403,372.559,53.223,48.340,782.715,1.953
1584598276.407,-23.926,37.598,46.875,2.441,18.066
1584598276.411,-366.699,12.695,27.832,-770.996,18.066
1584598276.415,-8.301,20.996,29.297,-81.055,6.348
1584598276.419,374.023,45.898,47.363,780.762,10.254
1584598276.423,110.840,38.574,47.363,302.734,13.184
1584598276.427,-349.609,10.254,26.855,-711.426,45.898
1584598276.431,-157.715,11.719,23.926,-397.949,36.133
1584598276.435,326.172,40.527,39.062,649.902,-4.883
1584598276.438,228.516,44.434,42.480,535.156,29.785
1584598276.442,-274.414,18.555,28.320,-533.203,36.621
1584598276.446,-281.250,11.719,20.508,-640.625,37.598
1584598276.450,229.004,31.738,35.156,423.828,20.996
1584598276.454,323.730,43.945,46.387,703.613,4.883
1584598276.458,-149.902,28.320,37.598,-249.512,49.316
1584598276.462,-361.328,7.324,21.973,-760.254,59.082
1584598276.466,86.914,18.555,28.809,141.113,19.043
1584598276.470,357.910,38.086,43.457,781.250,-4.395
1584598276.474,-6.348,27.832,42.969,65.430,-30.762
1584598276.477,-377.930,6.348,28.809,-774.902,-13.184
1584598276.481,-55.176,17.090,30.762,-165.527,34.668
1584598276.485,359.863,40.039,45.898,745.117,15.625
1584598276.489,138.184,40.527,45.410,349.121,27.832
1584598276.493,-345.703,20.020,31.738,-663.574,54.688
1584598276.497,-202.637,14.648,23.438,-458.984,-4.883
1584598276.501,304.199,36.133,38.574,592.285,-9.766
1584598276.505,257.324,41.992,50.293,592.773,35.645
1584598276.509,-250.000,20.508,36.621,-453.613,-28.809
1584598276.513,-315.918,7.812,21.973,-683.594,-24.414
1584598276.517,190.430,32.715,35.156,348.633,81.543
1584598276.520,338.379,46.875,44.922,738.770,72.266
1584598276.524,-107.422,29.785,35.645,-162.109,26.367
1584598276.528,-360.840,13.184,24.902,-788.086,41.992
1584598276.532,59.570,28.320,30.273,37.109,7.812
1584598276.536,375.000,53.711,46.875,780.762,-36.133
1584598276.540,48.340,46.875,46.875,161.621,-18.066
1584598276.544,-358.398,19.531,28.320,-746.094,36.133
1584598276.548,-85.449,25.391,29.785,-248.047,34.180
1584598276.552,359.863,53.223,48.828,724.121,-8.789
1584598276.556,186.035,53.711,53.711,442.383,-16.602
1584598276.560,-300.781,28.320,38.086,-614.258,-12.695
1584598276.563,-212.891,23.926,31.250,-521.484,37.109
1584598276.567,291.016,48.340,45.410,560.547,76.660
1584598276.571,297.363,55.176,52.246,654.785,38.086
1584598276.575,-196.777,29.785,40.039,-379.395,7.812
1584598276.579,-310.059,21.484,30.273,-713.379,40.527
1584598276.583,183.105,50.781,41.016,299.316,106.445
1584598276.587,372.070,63.965,50.781,779.785,79.102
1584598276.591,-55.664,41.992,43.457,-62.012,58.594
1584598276.595,-361.816,18.555,28.320,-758.301,92.773
1584598276.599,25.879,29.785,35.156,-9.277,63.477
1584598276.602,382.812,50.293,49.316,792.480,39.062
1584598276.606,85.938,42.480,48.340,243.652,76.172
1584598276.610,-352.539,17.090,34.668,-726.074,62.988
1584598276.614,-117.188,16.113,29.297,-321.289,38.574
1584598276.618,348.633,39.062,43.945,692.383,67.871
1584598276.622,216.797,44.922,48.828,495.605,44.922
1584598276.626,-287.598,24.902,34.668,-562.500,43.945
1584598276.630,-261.719,14.160,27.832,-583.984,78.613
1584598276.634,255.371,37.598,41.992,485.840,68.848
1584598276.638,309.570,50.781,51.758,699.219,56.152
1584598276.642,-171.387,30.273,41.016,-282.227,73.242
1584598276.645,-338.867,13.672,30.273,-742.188,1.953
1584598276.649,126.953,31.250,38.574,197.266,-11.719
1584598276.653,372.559,52.246,49.805,787.598,31.250
1584598276.657,-19.043,40.527,41.992,16.602,-7.324
1584598276.661,-369.629,13.184,25.879,-777.832,-17.578
1584598276.665,-16.113,20.996,27.832,-120.117,2.930
1584598276.669,376.465,49.316,42.969,750.977,-12.207
1584598276.673,122.559,45.410,47.852,316.406,-18.066
1584598276.677,-340.820,17.090,28.809,-691.895,-2.441
1584598276.681,-162.109,20.020,25.391,-397.949,12.695
1584598276.685,327.148,48.340,44.922,656.738,67.871
1584598276.688,250.977,51.758,50.293,562.012,43.457
1584598276.692,-246.094,28.809,35.645,-495.605,22.461
1584598276.696,-275.879,20.020,25.879,-639.648,66.895
1584598276.700,223.633,42.480,41.992,422.852,53.711
1584598276.704,335.938,54.688,55.176,732.910,38.086
1584598276.708,-125.488,36.133,42.969,-215.332,48.828
1584598276.712,-352.051,15.625,23.926,-762.207,50.293
1584598276.716,81.543,30.273,28.809,113.770,66.406
1584598276.720,369.629,54.199,45.410,786.133,16.113
1584598276.724,18.066,43.945,44.434,86.914,-5.859
1584598276.727,-363.770,17.578,27.832,-784.180,25.391
1584598276.731,-53.711,24.414,27.344,-187.500,23.438
1584598276.735,361.816,46.387,41.504,750.488,36.621
1584598276.739,150.391,42.480,44.434,385.254,20.508
1584598276.743,-332.031,19.531,28.809,-652.344,18.555
1584598276.747,-206.543,17.090,18.555,-491.211,-13.184
1584598276.751,294.434,39.062,34.180,577.637,-17.090
1584598276.755,267.578,44.922,47.852,608.398,-0.977
1584598276.759,-225.586,24.902,35.645,-429.688,7.812
1584598276.763,-306.641,13.184,22.949,-688.477,58.105
1584598276.767,185.059,32.715,35.156,330.566,51.758
1584598276.770,348.633,47.363,46.875,743.652,9.277
1584598276.774,-87.891,32.227,38.574,-133.301,-1.465
1584598276.778,-359.863,13.672,24.902,-763.672,8.789
1584598276.782,51.270,26.367,30.273,37.598,-2.930
1584598276.786,384.277,52.734,47.363,783.691,-27.832
1584598276.790,65.430,44.434,47.852,188.965,0.000
1584598276.794,-363.281,12.695,28.809,-739.746,57.129
1584598276.798,-100.586,16.602,28.809,-266.113,104.492
1584598276.802,351.074,42.969,44.434,716.797,30.762
1584598276.806,189.453,44.434,46.875,454.102,12.207
1584598276.810,-304.199,20.508,31.250,-598.633,32.227
1584598276.813,-240.723,9.277,21.973,-551.270,28.320
1584598276.817,271.973,32.227,38.574,521.484,76.660
1584598276.821,301.270,45.898,50.781,674.316,104.492
1584598276.825,-190.918,23.438,40.527,-341.309,98.145
1584598276.829,-330.078,7.812,26.855,-724.121,40.039
1584598276.833,145.996,28.809,35.156,252.930,25.879
1584598276.837,353.027,44.922,48.828,773.438,37.109
1584598276.841,-48.340,31.250,46.387,-41.992,55.176
1584598276.845,-358.398,10.254,31.250,-778.809,40.527
1584598276.849,13.672,23.438,33.203,-52.246,11.230
1584598276.852,375.488,49.316,48.340,777.344,13.672
1584598276.856,95.215,41.992,47.852,269.531,54.688
1584598276.860,-354.004,12.207,30.273,-724.121,56.152
1584598276.864,-135.742,18.555,30.762,-367.188,35.645
1584598276.868,344.238,47.363,46.875,681.641,45.898
1584598276.872,227.539,45.410,49.316,522.949,18.066
1584598276.876,-273.926,20.508,35.156,-543.457,49.316
1584598276.880,-261.719,10.742,25.879,-605.957,65.918
1584598276.884,250.977,34.668,38.086,459.473,4.883
1584598276.888,324.707,49.805,50.293,701.172,-10.254
1584598276.892,-154.297,33.203,39.062,-269.531,28.809
1584598276.895,-346.680,17.578,21.484,-749.023,15.137
1584598276.899,110.352,32.715,28.320,173.340,3.906
1584598276.903,372.559,50.781,43.457,780.273,26.367
1584598276.907,-2.930,39.062,39.062,27.344,4.395
1584598276.911,-364.746,20.508,24.902,-779.785,1.953
1584598276.915,-26.855,28.809,30.762,-132.324,-31.738
1584598276.919,374.512,51.758,45.898,763.672,-9.277
1584598276.923,134.277,50.293,44.922,335.449,48.340
1584598276.927,-338.379,25.391,31.250,-682.129,7.324
1584598276.931,-178.711,21.973,30.273,-428.223,-18.066
1584598276.935,313.477,41.504,41.992,620.605,-14.160
1584598276.938,238.770,46.875,42.480,565.430,-10.254
1584598276.942,-260.254,21.973,31.250,-485.352,25.879
1584598276.946,-303.711,7.812,22.949,-661.133,71.289
1584598276.950,189.941,27.832,34.180,372.559,79.102
1584598276.954,319.336,44.434,50.781,720.215,79.102
1584598276.958,-125.000,29.785,43.945,-193.359,22.461
1584598276.962,-360.840,9.277,24.902,-771.484,25.391
1584598276.966,62.500,24.902,31.738,85.449,27.344
1584598276.970,361.816,46.875,46.387,786.621,62.988
1584598276.974,25.391,37.598,45.410,128.418,63.477
1584598276.977,-373.047,11.719,28.809,-766.113,-15.625
1584598276.981,-84.473,19.043,27.344,-231.445,-6.836
1584598276.985,355.469,47.363,48.828,730.469,3.418
1584598276.989,166.992,44.922,53.711,410.645,-6.348
1584598276.993,-325.195,14.648,32.227,-646.973,-21.973
1584598276.997,-219.238,11.719,25.879,-520.996,49.805
1584598277.001,292.969,43.945,47.363,568.359,50.781
1584598277.005,277.344,54.199,56.152,633.301,-2.441
1584598277.009,-215.820,31.250,38.574,-402.832,21.973
1584598277.013,-313.477,12.695,21.973,-691.406,4.395
1584598277.017,174.805,33.691,33.691,312.988,17.090
1584598277.020,357.422,54.199,46.875,762.695,34.180
1584598277.024,-73.242,35.156,39.551,-93.750,24.414
1584598277.028,-364.258,12.207,23.926,-772.461,44.434
1584598277.032,35.645,26.367,26.367,4.883,34.668
1584598277.036,379.395,45.898,44.434,789.551,35.645
1584598277.040,70.312,34.668,43.457,202.637,36.621
1584598277.044,-355.469,14.160,24.902,-756.348,4.883
1584598277.048,-107.910,22.949,24.414,-309.570,3.906
1584598277.052,347.656,46.387,41.504,698.242,24.902
1584598277.056,201.172,44.434,45.410,471.191,-2.441
1584598277.060,-288.574,21.484,29.297,-588.867,0.000
1584598277.063,-242.188,12.695,19.043,-571.289,45.410
1584598277.067,262.207,35.645,33.691,501.465,59.082
1584598277.071,306.641,53.223,49.805,672.852,32.227
1584598277.075,-179.199,32.227,40.039,-324.219,43.457
1584598277.079,-331.055,12.695,26.367,-720.215,120.117
1584598277.083,137.695,28.809,35.156,235.352,64.941
1584598277.087,365.234,49.316,45.410,766.602,-2.441
1584598277.091,-25.879,38.574,38.574,-14.160,-13.184
1584598277.095,-355.469,16.113,23.926,-766.602,2.441
1584598277.099,1.465,27.832,30.273,-81.055,35.645
1584598277.102,367.676,45.410,45.898,769.043,44.434
1584598277.106,96.191,36.133,43.945,280.273,56.152
1584598277.110,-356.445,9.277,25.879,-717.773,70.801
1584598277.114,-166.016,8.301,20.996,-395.508,14.648
1584598277.118,313.477,31.738,37.598,638.184,-24.414
1584598277.122,227.539,37.109,45.410,525.879,21.484
1584598277.126,-270.996,15.137,32.227,-525.879,33.691
1584598277.130,-283.691,3.418,21.973,-634.277,17.090
1584598277.134,218.262,23.926,34.180,427.734,11.230
1584598277.138,314.453,39.551,46.387,707.520,21.484
1584598277.142,-154.785,22.949,39.062,-254.395,39.551
1584598277.145,-359.863,0.977,22.949,-770.996,27.344
1584598277.149,94.727,20.508,32.227,132.324,0.488
1584598277.153,365.234,43.945,49.316,779.297,-10.742
1584598277.157,-7.324,30.273,41.992,58.594,5.859
1584598277.161,-375.488,7.812,23.926,-782.715,-19.043
1584598277.165,-47.363,19.531,24.902,-166.504,-11.719
1584598277.169,361.816,42.969,44.434,753.418,37.598
1584598277.173,131.836,40.527,47.363,355.469,25.879
1584598277.177,-340.820,13.184,29.785,-674.316,37.109
1584598277.181,-187.500,8.789,24.414,-461.426,13.672
1584598277.185,309.570,39.062,42.480,603.516,41.504
1584598277.188,260.742,45.410,48.340,589.844,48.340
1584598277.192,-233.398,23.438,32.227,-464.355,28.809
1584598277.196,-292.480,14.648,23.438,-676.270,55.176
1584598277.200,206.055,37.109,37.109,367.188,90.332
1584598277.204,348.633,53.223,50.293,750.000,109.375
1584598277.208,-96.191,38.574,45.410,-155.762,18.066
1584598277.212,-352.051,17.578,28.809,-763.184,-40.527
1584598277.216,62.500,29.785,33.203,68.848,7.812
1584598277.220,375.488,53.711,49.316,794.434,40.527
1584598277.224,43.945,42.480,45.898,157.715,64.453
1584598277.227,-354.492,17.090,29.297,-749.512,63.965
1584598277.231,-73.730,22.461,29.297,-243.164,29.297
1584598277.235,364.746,47.852,42.480,721.680,30.273
1584598277.239,189.453,51.270,46.387,427.246,28.320
1584598277.243,-303.223,26.367,31.250,-622.070,-17.578
1584598277.247,-219.238,16.113,22.949,-522.949,1.953
1584598277.251,287.598,37.598,41.016,556.152,74.707
1584598277.255,288.574,46.875,51.758,645.996,83.984
1584598277.259,-208.984,24.414,37.109,-381.348,24.414
1584598277.263,-320.801,10.742,21.484,-714.355,4.883
1584598277.267,167.969,34.180,32.227,271.973,6.836
1584598277.270,351.562,49.805,45.898,755.859,-19.531
1584598277.274,-71.289,31.738,38.086,-85.449,27.832
1584598277.278,-371.094,7.324,21.484,-780.762,21.973
1584598277.282,11.719,19.043,26.855,-28.320,1.465
1584598277.286,364.258,44.922,44.434,770.996,37.598
1584598277.290,76.172,36.621,42.480,228.027,21.973
1584598277.294,-357.422,13.184,26.367,-738.281,-17.578
1584598277.298,-124.023,19.531,26.855,-330.078,33.203
1584598277.302,343.750,42.480,43.457,679.199,23.438
1584598277.306,210.938,43.945,49.316,486.816,-12.207
1584598277.310,-288.574,22.461,32.227,-573.730,55.176
1584598277.313,-253.418,13.184,22.461,-600.586,34.668
1584598277.317,250.000,35.645,39.551,477.051,43.457
1584598277.321,300.781,46.875,52.246,682.617,74.219
1584598277.325,-174.316,28.809,42.969,-314.453,36.621
1584598277.329,-339.355,16.113,29.785,-744.629,28.809
1584598277.333,125.000,35.645,40.527,209.961,58.105
1584598277.337,367.676,54.199,53.711,780.762,73.730
1584598277.341,-16.602,42.480,49.316,9.277,13.184
1584598277.345,-360.352,17.090,32.227,-773.438,-35.156
1584598277.349,-13.184,25.391,31.250,-96.680,31.250
1584598277.352,374.023,49.316,48.340,770.508,52.246
1584598277.356,117.676,42.480,47.363,309.570,9.277
1584598277.360,-344.238,18.066,32.227,-694.336,1.465
1584598277.364,-156.738,19.531,29.785,-395.508,28.320
1584598277.368,332.031,44.434,42.480,649.414,61.035
1584598277.372,249.512,48.828,48.828,549.805,24.414
1584598277.376,-249.023,29.785,35.156,-507.324,4.883
1584598277.380,-270.020,20.020,22.461,-635.254,-13.672
1584598277.384,229.492,39.551,35.156,417.480,-15.625
1584598277.388,334.961,53.711,47.852,723.633,5.859
1584598277.392,-122.559,37.109,40.039,-214.844,20.020
1584598277.395,-345.703,20.508,24.414,-755.859,14.160
1584598277.399,97.656,36.133,32.715,128.418,30.273
1584598277.403,379.395,53.223,49.316,790.527,62.988
1584598277.407,14.648,40.527,46.387,89.844,14.648
1584598277.411,-363.770,13.672,28.320,-762.695,48.828
1584598277.415,-55.664,16.602,27.832,-189.941,56.152
1584598277.419,362.305,46.875,44.434,736.816,24.902
1584598277.423,158.203,46.875,45.410,387.695,41.504
1584598277.427,-322.266,17.578,29.785,-658.203,-33.203
1584598277.431,-203.613,13.672,24.414,-486.328,11.230
1584598277.435,298.340,43.457,42.969,597.168,92.285
1584598277.438,276.367,57.129,53.711,625.977,75.195
1584598277.442,-218.262,31.738,40.039,-423.828,16.602
1584598277.446,-302.734,13.184,25.879,-680.176,-1.953
1584598277.450,188.965,33.203,38.086,343.750,39.062
1584598277.454,348.145,51.758,54.199,752.930,46.875
1584598277.458,-88.379,33.203,44.434,-137.207,4.883
1584598277.462,-354.004,10.254,23.438,-782.227,-4.883
1584598277.466,54.199,21.484,31.250,37.109,-3.418
1584598277.470,378.418,41.504,47.363,790.527,15.137
1584598277.474,55.664,35.156,41.016,166.992,25.879
1584598277.477,-360.352,14.160,24.414,-753.906,36.133
1584598277.481,-97.656,18.066,22.949,-269.043,23.438
1584598277.485,331.543,20.996,21.973,693.359,-0.488
1584598277.489,142.578,-3.906,4.395,400.391,37.109
1584598277.493,-362.793,-37.109,-20.508,-662.598,49.805
1584598277.497,-289.551,-45.898,-32.715,-596.191,39.062
1584598277.501,217.773,-26.367,-18.555,477.051,36.133
1584598277.505,230.957,-19.043,-11.230,601.562,16.602
1584598277.509,-252.441,-34.180,-22.949,-418.945,32.715
1584598277.513,-374.023,-44.922,-32.715,-777.832,25.879
1584598277.517,100.098,-25.391,-20.508,209.961,-3.418
1584598277.520,299.316,-7.324,-6.348,710.938,-11.230
1584598277.524,-106.445,-15.625,-12.207,-113.281,-23.926
1584598277.528,-412.109,-30.273,-21.973,-829.590,-8.789
1584598277.532,-32.227,-16.113,-12.207,-86.914,74.707
1584598277.536,332.031,9.766,4.395,743.652,88.867
1584598277.540,54.688,5.859,6.348,225.098,18.066
1584598277.544,-385.254,-18.066,-8.301,-750.000,26.855
1584598277.548,-168.457,-14.648,-10.254,-375.977,28.320
1584598277.552,307.617,13.184,7.324,637.695,29.785
1584598277.556,191.895,17.578,14.160,475.098,43.945
1584598277.560,-303.711,-1.465,0.488,-577.637,6.348
1584598277.563,-287.109,-6.348,-5.371,-636.230,55.176
1584598277.567,221.191,20.508,13.184,423.828,93.262
1584598277.571,298.828,37.109,27.832,661.133,52.734
1584598277.575,-174.316,16.602,20.508,-297.852,19.531
1584598277.579,-361.816,-1.953,5.371,-761.230,51.270
1584598277.583,98.145,17.090,15.137,166.504,47.852
1584598277.587,351.562,37.598,33.691,768.555,21.973
1584598277.591,-33.203,24.902,27.832,19.043,18.555
1584598277.595,-385.742,4.883,10.742,-777.344,-0.977
1584598277.599,-41.016,16.113,15.625,-135.254,-13.184
1584598277.602,364.746,40.527,32.227,743.652,-31.250
1584598277.606,122.559,36.621,33.203,311.523,34.668
1584598277.610,-344.238,7.812,16.602,-702.148,64.941
1584598277.614,-176.758,6.348,14.648,-431.152,41.992
1584598277.618,309.570,35.156,37.598,639.160,49.316
1584598277.622,241.211,41.016,41.016,576.172,54.688
1584598277.626,-260.742,16.113,24.414,-487.793,46.387
1584598277.630,-297.363,4.395,15.137,-661.621,-3.418
1584598277.634,202.148,27.344,27.344,389.648,0.977
1584598277.638,325.684,42.480,40.527,722.656,1.465
1584598277.642,-121.582,28.320,33.691,-199.707,38.574
1584598277.645,-351.074,11.230,18.555,-765.625,93.262
1584598277.649,81.543,24.902,25.879,90.820,78.613
1584598277.653,375.000,43.945,41.504,777.344,11.719
1584598277.657,24.902,34.180,39.551,101.074,-9.766
1584598277.661,-368.652,13.672,23.926,-765.137,29.785
1584598277.665,-72.266,21.973,25.391,-209.473,11.719
1584598277.669,354.492,47.363,43.457,727.539,-4.883
1584598277.673,154.785,44.922,42.969,393.066,15.137
1584598277.677,-325.684,21.484,25.391,-646.484,48.340
1584598277.681,-211.426,16.113,20.508,-495.605,49.805
1584598277.685,289.062,36.621,35.645,566.895,38.574
1584598277.688,277.344,50.293,46.387,610.840,25.879
1584598277.692,-213.379,32.715,37.598,-416.504,-3.418
1584598277.696,-310.059,15.137,22.949,-697.754,13.184
1584598277.700,177.734,32.715,33.691,304.199,42.480
1584598277.704,345.215,51.758,49.316,730.957,41.016
1584598277.708,-86.914,35.156,41.992,-127.930,-19.531
1584598277.712,-366.211,14.160,25.879,-778.320,32.715
1584598277.716,34.180,26.367,32.715,14.160,67.383
1584598277.720,375.000,56.641,49.805,785.645,-11.719
1584598277.724,78.125,52.734,44.434,200.684,-0.977
1584598277.727,-343.262,24.414,26.855,-741.211,-10.254
1584598277.731,-98.633,28.320,28.320,-295.898,-22.461
1584598277.735,352.051,55.664,45.410,705.566,63.477
1584598277.739,196.777,54.199,49.316,475.098,74.219
1584598277.743,-299.805,25.879,33.203,-596.680,36.621
1584598277.747,-235.840,20.996,25.391,-576.172,65.918
1584598277.751,272.949,46.387,40.039,507.812,85.938
1584598277.755,301.758,56.152,52.246,671.387,-0.488
1584598277.759,-175.781,37.109,42.480,-330.078,-57.129
1584598277.763,-319.336,23.438,33.691,-720.703,-26.367
1584598277.767,149.902,40.039,45.898,245.117,16.113
1584598277.770,362.305,56.152,55.664,783.691,35.156
1584598277.774,-41.992,41.504,46.387,-15.137,31.738
1584598277.778,-369.141,18.066,29.785,-775.391,28.320
1584598277.782,-8.789,29.785,34.668,-70.801,27.344
1584598277.786,357.422,52.734,53.223,774.414,73.242
1584598277.790,87.891,43.945,54.688,269.043,26.855
1584598277.794,-354.492,21.973,35.645,-718.750,11.719
1584598277.798,-150.391,27.832,32.715,-363.770,101.562
1584598277.802,328.613,52.246,51.270,673.828,102.539
1584598277.806,227.539,53.223,58.594,532.715,81.543
1584598277.810,-277.832,28.320,41.992,-521.973,86.914
1584598277.813,-280.273,20.996,27.344,-603.516,41.992
1584598277.817,227.539,43.945,42.969,447.266,38.574
1584598277.821,314.941,56.641,52.734,704.102,55.664
1584598277.825,-155.762,34.668,38.086,-254.395,-14.648
1584598277.829,-356.934,12.207,23.438,-756.348,14.160
1584598277.833,91.309,31.738,33.691,152.344,125.488
1584598277.837,353.516,51.758,49.805,788.086,76.172
1584598277.841,-6.836,43.457,48.828,62.500,64.941
1584598277.845,-364.746,23.926,32.715,-763.672,114.258
1584598277.849,-41.504,27.832,33.203,-151.855,44.434
1584598277.852,362.305,53.223,49.805,745.117,-3.906
1584598277.856,140.137,52.734,50.781,357.910,3.906
1584598277.860,-332.520,23.926,30.762,-660.156,22.949
1584598277.864,-186.523,20.996,25.391,-444.336,0.000
1584598277.868,314.453,49.316,44.434,621.582,-14.160
1584598277.872,270.020,56.152,51.758,601.562,21.973
1584598277.876,-232.422,28.809,37.598,-456.055,-15.625
1584598277.880,-293.457,15.137,25.879,-661.133,-42.969
1584598277.884,211.426,41.016,40.039,372.559,0.488
1584598277.888,354.980,59.570,54.199,743.652,14.160
1584598277.892,-91.309,41.504,46.875,-154.297,-37.598
1584598277.895,-337.402,20.020,32.227,-752.930,10.742
1584598277.899,84.961,40.039,40.039,82.520,37.109
1584598277.903,391.113,64.941,57.617,802.246,-10.254
1584598277.907,64.453,55.664,57.129,167.480,27.832
1584598277.911,-325.684,40.527,54.199,-713.867,19.043
1584598277.915,-38.574,57.617,65.918,-186.523,15.137
1584598277.919,396.973,84.473,84.961,768.555,41.992
1584598277.923,215.820,84.961,91.797,468.750,6.348
1584598277.927,-265.137,61.523,78.613,-576.172,-27.832
1584598277.931,-167.480,57.617,71.777,-469.238,7.324
1584598277.935,340.332,83.984,84.961,602.051,17.578
1584598277.938,333.008,90.820,92.773,682.129,0.000
1584598277.942,-161.133,64.453,79.102,-348.145,13.672
1584598277.946,-270.020,50.293,66.895,-662.109,12.207
1584598277.950,205.078,69.336,75.195,334.961,23.438
1584598277.954,392.090,84.473,88.867,802.734,51.758
1584598277.958,-22.461,69.824,82.520,-34.180,51.758
1584598277.962,-324.707,47.852,58.105,-731.445,77.637
1584598277.966,57.129,57.129,60.547,14.648,-13.184
1584598277.970,398.926,77.637,80.566,802.734,-44.922
1584598277.974,100.586,70.801,78.125,253.906,48.828
1584598277.977,-326.660,43.457,57.129,-697.266,41.016
1584598277.981,-94.238,44.434,56.152,-289.551,49.316
1584598277.985,366.699,68.359,70.801,710.449,69.336
1584598277.989,231.445,70.312,72.754,507.324,103.516
1584598277.993,-262.695,46.387,58.105,-538.086,91.797
1584598277.997,-222.168,38.086,47.852,-541.992,25.879
1584598278.001,285.156,60.059,60.547,524.414,18.066
1584598278.005,333.496,69.824,69.336,705.566,28.320
1584598278.009,-147.461,48.340,56.152,-282.715,47.363
1584598278.013,-315.918,28.320,41.016,-710.449,7.812
1584598278.017,147.461,48.340,51.758,231.445,16.602
1584598278.020,382.812,67.383,68.359,802.734,97.656
1584598278.024,-7.812,51.270,62.988,26.855,83.008
1584598278.028,-348.145,25.879,44.922,-754.883,58.594
1584598278.032,4.395,35.645,44.922,-83.984,77.148
1584598278.036,393.555,64.941,60.059,779.297,101.074
1584598278.040,138.672,60.547,61.035,322.754,77.148
1584598278.044,-320.312,30.762,42.480,-681.152,-4.883
1584598278.048,-142.578,28.320,37.598,-386.230,-12.695
1584598278.052,331.055,54.688,52.734,656.738,14.160
1584598278.056,242.188,56.641,60.059,561.035,-17.578
1584598278.060,-254.883,31.250,51.270,-500.000,-17.090
1584598278.063,-272.949,26.367,42.969,-630.859,-36.621
1584598278.067,231.445,49.805,55.176,429.199,-8.301
1584598278.071,335.449,62.500,66.895,738.770,31.738
1584598278.075,-119.629,46.875,58.594,-209.961,43.945
1584598278.079,-329.590,30.273,38.574,-753.906,45.410
1584598278.083,100.586,43.945,42.969,132.324,7.324
1584598278.087,375.000,61.523,60.059,799.805,46.875
1584598278.091,14.160,48.828,56.641,101.562,28.320
1584598278.095,-358.398,25.879,38.574,-760.254,16.602
1584598278.099,-44.434,37.598,38.574,-177.246,21.973
1584598278.102,362.793,60.547,54.199,741.211,-6.348
1584598278.106,158.691,57.129,55.176,375.488,-41.504
1584598278.110,-310.059,33.203,40.039,-646.973,-38.086
1584598278.114,-179.688,27.344,35.156,-456.055,5.371
1584598278.118,316.406,47.852,43.945,591.797,7.812
1584598278.122,274.902,57.617,46.387,587.402,5.371
1584598278.126,-223.145,36.133,38.086,-434.082,45.898
1584598278.130,-297.363,19.531,28.809,-665.039,76.172
1584598278.134,195.312,41.992,39.062,357.422,31.250
1584598278.138,348.633,57.129,54.199,747.559,42.480
1584598278.142,-86.426,39.551,49.316,-145.996,16.113
1584598278.145,-340.332,24.414,37.598,-758.301,24.902
1584598278.149,70.801,37.598,42.969,56.152,41.016
1584598278.153,377.441,53.711,52.734,787.598,36.621
1584598278.157,54.688,42.969,46.387,170.898,27.832
1584598278.161,-352.051,16.113,28.809,-746.582,-26.367
1584598278.165,-93.750,19.043,30.273,-272.949,-33.691
1584598278.169,342.773,41.992,48.340,690.918,11.719
1584598278.173,180.176,44.434,55.176,438.965,51.758
1584598278.177,-300.781,22.949,42.480,-600.098,57.617
1584598278.181,-229.004,16.602,36.133,-527.344,58.594
1584598278.185,273.438,41.992,53.711,546.875,61.523
1584598278.188,279.297,45.410,56.641,648.438,45.898
1584598278.192,-223.633,11.230,24.414,-375.488,8.789
1584598278.196,-351.562,-11.719,0.000,-743.164,-5.859
1584598278.200,125.977,3.906,8.789,229.980,40.527
1584598278.204,323.242,20.508,23.926,744.141,78.613
1584598278.208,-92.773,3.418,18.555,-84.473,53.711
1584598278.212,-396.973,-18.555,0.488,-811.035,42.969
1584598278.216,-16.602,-3.906,5.371,-70.312,56.152
1584598278.220,342.285,19.531,22.461,747.070,24.414
1584598278.224,67.871,15.625,22.949,221.191,-10.254
1584598278.227,-366.699,-5.371,7.324,-749.023,-21.484
1584598278.231,-145.996,0.977,5.859,-360.840,-37.109
1584598278.235,313.965,24.902,20.508,651.855,-3.418
1584598278.239,193.848,27.832,26.855,481.445,74.219
1584598278.243,-294.922,8.301,15.137,-565.430,74.219
1584598278.247,-276.855,-0.977,3.906,-617.188,16.602
1584598278.251,230.469,20.508,17.090,450.684,15.625
1584598278.255,306.152,33.203,28.809,682.129,64.453
1584598278.259,-163.086,17.578,19.531,-293.457,43.457
1584598278.263,-348.145,3.906,8.789,-758.301,-56.152
1584598278.267,114.746,22.461,21.973,175.293,13.184
1584598278.270,358.887,42.969,35.645,770.020,89.355
1584598278.274,-28.320,28.809,30.273,12.207,-16.113
1584598278.278,-372.070,5.371,15.137,-791.992,-62.500
1584598278.282,-30.762,16.602,17.578,-139.160,14.160
1584598278.286,360.840,42.969,36.133,748.047,44.434
1584598278.290,122.559,40.039,41.016,320.801,16.113
1584598278.294,-342.773,11.230,26.855,-692.383,44.434
1584598278.298,-183.594,6.836,21.484,-430.176,45.898
1584598278.302,300.781,32.227,33.691,620.605,3.906
1584598278.306,233.398,41.016,40.039,553.711,-3.906
1584598278.310,-259.766,22.461,30.762,-490.234,-21.973
1584598278.313,-287.109,15.137,23.926,-659.668,-5.371
1584598278.317,214.355,38.574,36.133,384.766,38.086
1584598278.321,329.102,55.664,47.363,734.375,19.531
1584598278.325,-116.211,39.551,41.992,-192.383,3.906
1584598278.329,-342.285,20.996,28.320,-760.742,-0.488
1584598278.333,78.125,37.109,36.621,105.957,62.012
1584598278.337,367.188,57.617,53.711,796.387,76.172
1584598278.341,25.879,45.410,51.758,124.512,0.488
1584598278.345,-358.887,20.996,36.133,-751.465,-10.742
1584598278.349,-60.547,28.320,39.062,-196.777,10.742
1584598278.352,367.188,57.129,58.105,747.070,-2.441
1584598278.356,175.781,57.617,61.035,411.621,20.996
1584598278.360,-299.316,33.203,44.434,-637.207,34.668
1584598278.364,-182.617,33.203,41.992,-490.723,-11.719
1584598278.368,309.570,57.129,58.105,592.285,49.316
1584598278.372,278.809,59.570,62.500,634.766,81.055
1584598278.376,-208.496,34.668,48.340,-401.367,12.207
1584598278.380,-295.410,18.555,38.574,-675.293,-0.488
1584598278.384,187.500,41.992,49.316,337.891,57.617
1584598278.388,353.516,63.477,61.035,773.926,30.273
1584598278.392,-70.312,47.363,53.223,-96.680,13.672
1584598278.395,-341.309,25.391,36.621,-755.371,24.414
1584598278.399,59.082,41.504,41.504,35.645,12.695
1584598278.403,395.996,65.430,57.617,804.688,45.898
1584598278.407,88.867,58.594,56.152,206.055,0.488
1584598278.411,-331.543,41.016,44.922,-729.980,-2.441
1584598278.415,-78.613,42.969,47.852,-266.113,-0.488
1584598278.419,375.000,64.453,60.547,722.168,14.160
1584598278.423,220.703,67.383,63.477,487.305,31.250
1584598278.427,-271.484,44.922,49.805,-554.199,40.039
1584598278.431,-214.844,36.133,42.969,-532.227,55.664
1584598278.435,283.691,57.129,57.129,527.344,61.523
1584598278.438,319.336,70.801,65.918,681.641,55.664
1584598278.442,-159.668,50.293,54.199,-311.035,51.270
1584598278.446,-304.688,33.203,40.527,-695.312,68.359
1584598278.450,162.109,51.758,52.246,240.234,37.598
1584598278.454,374.512,70.312,62.012,764.648,-3.418
1584598278.458,-25.391,54.199,50.293,-14.648,11.719
1584598278.462,-347.656,28.809,34.180,-758.789,54.199
1584598278.466,15.137,40.039,38.574,-57.129,20.508
1584598278.470,383.789,62.012,52.246,774.902,32.227
1584598278.474,112.305,53.711,51.758,276.367,51.758
1584598278.477,-337.402,27.832,32.715,-709.473,28.320
1584598278.481,-138.672,29.297,30.273,-364.746,-36.621
1584598278.485,336.426,53.711,49.805,670.410,-27.344
1584598278.489,241.211,55.664,58.594,532.227,29.297
1584598278.493,-256.836,30.273,42.969,-525.391,41.504
1584598278.497,-261.230,22.949,30.762,-619.141,2.930
1584598278.501,243.652,47.852,48.340,439.453,-22.949
1584598278.505,326.660,61.523,60.059,705.566,-13.184
1584598278.509,-142.578,40.527,50.293,-253.418,-21.484
1584598278.513,-340.332,18.555,32.227,-751.465,16.113
1584598278.517,111.328,38.086,37.598,162.109,56.641
1584598278.520,375.977,59.082,57.129,795.898,0.000
1584598278.524,8.301,48.340,53.711,65.918,-0.977
1584598278.528,-350.098,26.367,32.715,-761.719,62.988
1584598278.532,-30.273,33.691,33.691,-145.996,58.594
1584598278.536,364.746,53.711,52.246,761.230,71.777
1584598278.540,141.602,49.805,51.270,358.398,90.332
1584598278.544,-318.848,28.320,33.691,-670.410,37.598
1584598278.548,-168.457,25.879,29.785,-438.477,14.160
1584598278.552,322.754,50.293,50.293,624.023,56.152
1584598278.556,272.949,55.664,55.664,599.609,-39.062
1584598278.560,-223.145,32.227,38.086,-447.754,-40.039
1584598278.563,-280.762,20.996,28.809,-651.855,9.766
1584598278.567,208.008,42.969,41.016,382.324,-32.715
1584598278.571,340.332,60.059,54.199,740.723,11.719
1584598278.575,-101.074,41.992,47.852,-167.480,23.438
1584598278.579,-344.727,21.484,30.762,-758.301,23.438
1584598278.583,70.801,33.691,38.086,74.707,35.645
1584598278.587,373.535,52.734,54.199,777.832,59.082
1584598278.591,43.945,48.828,47.852,134.766,36.133
1584598278.595,-348.145,24.902,31.738,-747.070,9.766
1584598278.599,-65.918,30.762,39.551,-226.562,-15.625
1584598278.602,361.328,54.199,54.688,732.910,23.926
1584598278.606,179.199,51.758,52.734,432.129,60.059
1584598278.610,-306.152,27.344,40.527,-616.699,38.086
1584598278.614,-218.262,20.508,33.691,-511.230,32.227
1584598278.618,288.574,44.922,45.410,552.734,13.184
1584598278.622,292.480,55.176,55.664,634.277,2.930
1584598278.626,-201.172,29.785,40.527,-384.277,22.949
1584598278.630,-314.941,11.230,23.926,-700.684,41.992
1584598278.634,170.898,33.203,39.551,293.457,16.602
1584598278.638,356.445,53.711,54.199,761.230,27.344
1584598278.642,-61.523,41.504,48.340,-80.566,-19.043
1584598278.645,-352.539,20.020,31.738,-772.461,-19.531
1584598278.649,25.391,28.320,30.762,-17.090,2.930
1584598278.653,366.699,51.270,45.898,774.414,-20.020
1584598278.657,79.590,44.922,49.316,224.609,46.875
1584598278.661,-346.680,20.996,33.691,-727.051,49.316
1584598278.665,-113.770,25.391,30.273,-309.082,39.062
1584598278.669,349.609,51.758,46.387,699.707,48.828
1584598278.673,218.262,53.223,50.781,495.117,31.250
1584598278.677,-282.715,25.391,34.180,-560.059,38.574
1584598278.681,-242.676,18.066,25.879,-569.824,41.016
1584598278.685,261.719,40.527,41.504,493.652,47.852
1584598278.688,309.082,50.293,50.781,672.852,20.996
1584598278.692,-159.668,32.227,40.039,-315.430,-11.230
1584598278.696,-322.754,17.090,23.926,-719.238,21.484
1584598278.700,133.301,31.250,32.715,219.727,6.348
1584598278.704,364.258,48.828,47.363,771.973,23.438
1584598278.708,-20.996,37.598,42.969,-0.977,7.324
1584598278.712,-359.375,15.625,28.320,-770.020,8.301
1584598278.716,-20.020,23.926,32.227,-87.891,28.320
1584598278.720,362.793,44.922,48.828,766.113,15.625
1584598278.724,110.840,38.086,53.711,300.781,41.016
1584598278.727,-339.355,15.137,41.016,-689.941,35.156
1584598278.731,-153.809,16.602,34.668,-383.301,32.715
1584598278.735,321.777,41.504,48.828,650.391,71.289
1584598278.739,235.840,45.898,57.617,549.805,52.734
1584598278.743,-250.000,25.391,44.922,-492.188,29.297
1584598278.747,-264.160,16.602,29.785,-609.863,16.602
1584598278.751,230.469,38.574,40.527,432.617,-5.859
1584598278.755,331.055,53.711,53.711,720.703,28.320
1584598278.759,-124.023,33.203,43.945,-217.773,16.602
1584598278.763,-333.008,11.719,31.250,-743.652,23.438
1584598278.767,103.027,28.320,38.574,132.812,61.035
1584598278.770,373.535,49.805,53.223,777.344,35.645
1584598278.774,18.066,38.574,51.270,83.496,19.043
1584598278.778,-352.051,15.625,26.367,-766.113,22.461
1584598278.782,-44.434,25.391,27.344,-188.965,6.348
1584598278.786,367.188,51.270,51.758,738.281,30.762
1584598278.790,151.367,46.387,55.176,379.883,99.609
1584598278.794,-325.195,20.020,37.109,-647.461,68.359
1584598278.798,-198.242,17.090,28.809,-464.844,11.719
1584598278.802,293.945,40.039,44.434,592.285,19.531
1584598278.806,258.789,45.410,53.223,602.539,71.777
1584598278.810,-227.539,25.879,38.086,-437.012,56.641
1584598278.813,-288.086,16.113,24.902,-666.504,18.555
1584598278.817,199.707,35.645,38.086,352.539,32.227
1584598278.821,340.820,49.805,52.734,735.840,14.160
1584598278.825,-95.703,33.691,46.875,-155.762,13.184
1584598278.829,-352.539,17.090,31.250,-777.344,-7.812
1584598278.833,47.363,30.762,36.133,46.875,20.508
1584598278.837,360.840,51.758,50.781,779.785,43.457
1584598278.841,46.875,43.457,48.828,160.645,18.555
1584598278.845,-356.934,19.043,30.762,-751.953,20.996
1584598278.849,-84.961,26.367,29.785,-261.719,56.641
1584598278.852,357.910,50.781,47.363,716.797,59.570
1584598278.856,188.965,51.270,51.758,440.430,-35.645
1584598278.860,-299.805,28.809,37.109,-608.398,-29.297
1584598278.864,-227.539,21.484,27.832,-529.785,-15.625
1584598278.868,273.438,45.410,43.457,532.227,-6.836
1584598278.872,287.598,59.570,56.152,636.230,26.855
1584598278.876,-198.242,40.527,43.457,-364.746,17.090
1584598278.880,-320.801,23.926,27.344,-708.008,36.621
1584598278.884,161.621,41.016,37.109,266.602,12.207
1584598278.888,359.375,58.594,52.246,763.672,24.414
1584598278.892,-49.805,46.875,47.852,-51.758,84.473
1584598278.895,-354.004,21.484,33.691,-766.602,36.621
1584598278.899,19.531,31.250,35.645,-38.574,13.184
1584598278.903,377.930,54.688,49.805,770.508,17.090
1584598278.907,100.586,48.340,51.758,246.094,27.832
1584598278.911,-333.008,26.367,40.039,-710.938,29.785
1584598278.915,-121.094,24.902,39.062,-338.379,14.648
1584598278.919,335.938,47.852,50.781,665.527,-21.973
1584598278.923,218.750,51.758,54.199,503.418,-10.742
1584598278.927,-269.043,27.344,42.969,-541.016,30.273
1584598278.931,-240.723,20.996,35.156,-583.496,18.555
1584598278.935,257.324,42.969,46.875,474.609,2.930
1584598278.938,312.012,53.223,57.129,695.312,28.320
1584598278.942,-160.156,34.668,46.387,-278.809,-24.902
1584598278.946,-335.449,17.090,30.762,-730.957,-47.852
1584598278.950,124.023,37.109,43.457,190.918,-13.672
1584598278.954,373.047,59.082,58.594,789.062,3.418
1584598278.958,-9.277,40.527,49.316,39.551,17.578
1584598278.962,-355.957,17.090,32.227,-766.602,12.695
1584598278.966,-15.137,30.762,32.715,-114.746,-27.832
1584598278.970,370.117,54.199,50.293,767.090,0.488
1584598278.974,118.652,49.316,50.293,323.730,-0.488
1584598278.977,-339.355,26.367,30.273,-687.988,-50.293
1584598278.981,-169.922,27.832,25.879,-421.387,20.020
1584598278.985,307.129,48.340,41.504,623.535,51.270
1584598278.989,238.281,51.270,52.246,561.035,21.973
1584598278.993,-246.582,30.273,38.574,-479.492,67.383
1584598278.997,-285.645,18.066,22.949,-641.113,60.547
1584598279.001,205.078,39.062,35.156,387.207,-6.836
1584598279.005,325.684,54.688,47.852,717.285,31.250
1584598279.009,-127.930,37.598,39.062,-201.660,31.250
1584598279.013,-355.469,21.484,24.414,-758.789,49.805
1584598279.017,74.707,36.621,34.180,105.957,69.824
1584598279.020,366.211,56.152,50.293,769.043,-1.953
1584598279.024,26.367,46.875,43.457,92.285,-13.184
1584598279.028,-354.980,24.414,32.227,-753.418,4.883
1584598279.032,-59.570,28.809,37.598,-197.266,-32.227
1584598279.036,355.469,50.781,49.805,727.539,-72.754
1584598279.040,160.156,51.270,51.758,394.043,5.371
1584598279.044,-307.617,25.879,33.691,-637.695,11.719
1584598279.048,-195.801,21.484,27.832,-488.281,-39.551
1584598279.052,293.457,45.898,43.945,574.707,29.785
1584598279.056,271.973,55.176,53.711,617.676,51.758
1584598279.060,-208.496,35.645,42.969,-407.715,29.297
1584598279.063,-291.992,22.461,31.250,-678.711,29.785
1584598279.067,192.871,46.875,43.945,327.637,112.793
1584598279.071,353.516,64.453,58.105,760.742,102.539
1584598279.075,-76.660,45.410,48.340,-103.516,26.855
1584598279.079,-350.586,21.973,32.227,-756.836,88.867
1584598279.083,39.551,31.738,41.504,36.133,139.648
1584598279.087,368.164,56.152,58.594,793.945,110.840
1584598279.091,68.359,50.781,57.129,208.008,74.219
1584598279.095,-341.797,27.832,39.062,-720.703,80.566
1584598279.099,-91.309,31.250,34.180,-273.438,75.195
1584598279.102,353.027,54.688,48.340,708.008,42.969
1584598279.106,204.102,57.617,57.129,471.191,46.875
1584598279.110,-281.738,31.250,44.434,-585.938,42.480
1584598279.114,-233.887,23.438,33.691,-559.570,18.066
1584598279.118,264.160,46.387,43.457,504.395,-12.695
1584598279.122,291.016,55.176,53.223,652.344,20.996
1584598279.126,-190.918,33.691,44.922,-332.520,84.961
1584598279.130,-326.660,19.043,31.738,-711.914,46.875
1584598279.134,141.113,35.645,42.969,253.906,33.203
1584598279.138,357.422,54.199,57.617,768.555,36.133
1584598279.142,-37.109,43.945,54.688,-40.039,21.484
1584598279.145,-352.539,21.973,37.109,-760.742,56.641
1584598279.149,9.766,33.203,35.645,-51.270,81.055
1584598279.153,373.535,53.223,49.316,767.090,30.762
1584598279.157,104.492,46.875,49.805,256.836,-3.418
1584598279.161,-344.727,22.461,35.156,-716.797,-1.953
1584598279.165,-142.090,23.438,30.762,-355.469,27.832
1584598279.169,328.613,46.875,45.898,665.039,56.152
1584598279.173,222.168,49.316,54.688,526.855,70.801
1584598279.177,-265.137,25.391,41.992,-512.207,98.145
1584598279.181,-257.324,14.160,32.715,-602.539,53.711
1584598279.185,241.211,37.598,45.898,439.453,-27.832
1584598279.188,316.895,51.270,53.711,694.336,5.371
1584598279.192,-146.973,35.156,44.434,-255.371,46.875
1584598279.196,-346.191,16.113,32.227,-745.605,55.176
1584598279.200,94.727,31.250,38.086,143.066,23.438
1584598279.204,361.816,53.223,49.805,764.160,-23.926
1584598279.208,5.859,43.457,46.875,57.617,29.297
1584598279.212,-347.656,20.020,37.109,-750.977,40.039
1584598279.216,-24.414,30.762,40.039,-132.812,66.406
1584598279.220,373.535,55.664,53.223,757.324,77.148
1584598279.224,149.902,51.758,55.664,360.352,36.133
1584598279.227,-315.918,25.879,38.086,-655.762,52.246
1584598279.231,-173.340,24.414,28.809,-431.641,45.898
1584598279.235,312.012,51.758,47.363,615.723,22.461
1584598279.239,259.766,56.641,56.152,585.449,18.066
1584598279.243,-234.863,27.344,37.598,-458.008,9.277
1584598279.247,-293.457,12.695,24.902,-662.598,9.766
1584598279.251,200.195,38.574,42.969,379.883,4.395
1584598279.255,335.938,54.688,56.152,744.629,38.086
1584598279.259,-103.516,34.668,45.898,-169.922,15.625
1584598279.263,-343.262,17.090,30.273,-754.883,-38.574
1584598279.267,73.730,34.668,38.086,89.844,17.578
1584598279.270,376.953,53.223,53.711,794.922,38.574
1584598279.274,42.969,44.922,52.734,141.602,40.039
1584598279.278,-349.609,23.438,37.598,-746.094,74.219
1584598279.282,-68.359,22.949,35.645,-219.238,17.578
1584598279.286,350.098,43.945,49.805,723.633,-0.977
1584598279.290,166.992,44.922,52.734,407.227,15.625
1584598279.294,-308.594,21.973,34.668,-639.160,-6.348
1584598279.298,-209.961,17.578,25.391,-521.484,4.883
1584598279.302,291.504,39.062,43.945,555.664,21.973
1584598279.306,282.715,48.828,54.199,628.418,1.465
1584598279.310,-202.148,30.273,40.527,-392.090,-19.043
1584598279.313,-308.105,17.578,25.391,-694.824,-0.488
1584598279.317,171.387,38.086,38.574,295.898,-6.836
1584598279.321,349.121,53.223,52.734,761.719,18.555
1584598279.325,-67.871,39.062,45.410,-86.914,-22.949
1584598279.329,-350.098,18.555,31.250,-768.066,-28.320
1584598279.333,34.180,25.879,37.109,-3.906,47.852
1584598279.337,369.629,48.828,54.688,772.461,43.945
1584598279.341,74.219,43.457,52.246,214.844,1.465
1584598279.345,-345.215,16.602,31.738,-726.074,27.832
1584598279.349,-106.445,20.020,27.832,-308.594,15.625
1584598279.352,347.168,47.363,43.945,684.570,-4.883
1584598279.356,211.426,51.270,49.805,487.793,54.199
1584598279.360,-278.320,25.879,36.133,-555.176,41.992
1584598279.364,-238.281,15.625,26.367,-572.266,2.441
1584598279.368,265.625,41.992,38.574,489.746,-3.418
1584598279.372,311.035,56.152,48.828,677.734,31.250
1584598279.376,-165.039,32.227,35.156,-309.082,67.871
1584598279.380,-318.359,13.672,21.973,-723.145,73.730
1584598279.384,142.090,34.668,33.691,222.656,50.293
1584598279.388,365.723,55.664,49.805,779.785,17.578
1584598279.392,-20.020,41.504,45.898,-2.441,35.156
1584598279.395,-354.004,17.090,29.297,-783.691,22.461
1584598279.399,-9.277,28.320,35.156,-97.656,7.324
1584598279.403,364.258,52.246,53.223,769.531,-10.742
1584598279.407,113.281,47.852,56.152,304.688,-10.254
1584598279.411,-338.379,22.461,37.598,-683.594,32.227
1584598279.415,-161.133,20.508,25.879,-379.883,16.602
1584598279.419,319.824,45.410,44.922,647.949,21.973
1584598279.423,235.840,49.316,56.641,541.504,51.270
1584598279.427,-259.277,25.391,39.551,-513.672,53.223
1584598279.431,-277.344,15.137,32.227,-633.301,37.109
1584598279.435,223.633,39.062,51.270,416.992,12.207
1584598279.438,321.289,52.734,60.547,708.008,27.344
1584598279.442,-134.766,36.621,49.316,-239.746,37.109
1584598279.446,-342.285,21.973,31.738,-755.859,30.762
1584598279.450,93.750,37.109,39.551,139.648,20.996
1584598279.454,366.211,54.688,55.664,787.598,44.922
1584598279.458,6.836,40.527,47.852,84.473,67.871
1584598279.462,-364.258,15.625,28.320,-757.812,10.254
1584598279.466,-52.246,24.902,30.273,-169.434,16.602
1584598279.470,364.258,47.852,52.246,741.211,47.363
1584598279.474,148.438,44.434,54.199,363.770,30.762
1584598279.477,-318.359,21.973,35.645,-653.809,14.160
1584598279.481,-179.688,20.020,33.203,-459.961,51.270
1584598279.485,304.199,44.922,49.316,584.961,79.590
1584598279.489,262.207,54.199,56.641,588.867,37.598
1584598279.493,-221.680,33.691,44.922,-424.316,20.996
1584598279.497,-290.039,17.578,28.809,-656.738,18.555
1584598279.501,188.477,35.645,39.062,348.633,23.438
1584598279.505,332.520,55.176,53.711,743.164,32.715
1584598279.509,-94.727,38.574,45.898,-140.137,64.941
1584598279.513,-342.773,17.090,32.715,-752.930,38.086
1584598279.517,65.918,31.738,37.109,59.082,-3.418
1584598279.520,383.789,53.711,49.805,788.086,-36.133
1584598279.524,57.129,43.945,47.363,168.945,-52.246
1584598279.528,-351.562,18.066,32.227,-744.141,20.508
1584598279.532,-76.660,24.414,31.250,-257.812,26.367
1584598279.536,363.281,51.758,47.363,710.449,9.766
1584598279.540,189.941,54.199,52.246,441.895,12.695
1584598279.544,-300.293,28.320,37.598,-601.562,-4.883
1584598279.548,-220.215,17.090,31.250,-521.484,-13.672
1584598279.552,279.785,39.551,46.387,541.992,-9.766
1584598279.556,288.574,49.316,54.688,649.902,2.441
1584598279.560,-187.988,28.809,41.992,-349.121,-20.020
1584598279.563,-306.152,17.578,28.809,-693.359,11.719
1584598279.567,166.504,37.598,36.133,274.902,80.566
1584598279.571,358.398,53.223,50.781,761.230,62.500
1584598279.575,-54.688,36.133,45.898,-64.453,43.945
1584598279.579,-354.492,17.090,30.762,-769.531,94.238
1584598279.583,20.020,26.855,33.691,-24.414,97.656
1584598279.587,370.605,47.852,50.293,778.320,59.082
1584598279.591,91.309,44.922,50.781,245.605,49.805
1584598279.595,-336.426,19.043,32.715,-713.379,-2.441
1584598279.599,-118.652,20.508,31.738,-332.520,-17.090
1584598279.602,338.867,45.898,49.805,675.781,39.551
1584598279.606,218.262,52.734,56.641,505.859,90.332
1584598279.610,-270.996,27.832,42.969,-545.410,46.387
1584598279.614,-251.465,14.648,31.738,-584.961,15.625
1584598279.618,246.094,36.621,44.434,473.633,65.430
1584598279.622,310.059,48.340,55.664,679.688,38.574
1584598279.626,-152.832,34.668,48.828,-281.250,19.043
1584598279.630,-325.195,18.555,32.715,-720.703,-1.953
1584598279.634,126.953,33.203,35.645,194.336,-5.859
1584598279.638,368.164,52.734,50.293,779.297,41.016
1584598279.642,-14.648,40.039,45.410,32.227,32.227
1584598279.645,-372.559,4.883,19.531,-765.625,83.496
1584598279.649,-45.898,0.977,13.184,-131.836,89.355
1584598279.653,336.426,22.461,27.832,730.957,0.488
1584598279.657,97.168,20.508,29.297,294.922,-34.668
1584598279.661,-356.934,-3.906,10.254,-694.336,-19.043
1584598279.665,-192.383,-7.812,1.953,-435.547,-7.812
1584598279.669,289.062,17.090,23.438,595.215,36.133
1584598279.673,215.820,27.344,34.180,545.898,58.105
1584598279.677,-274.902,2.930,15.137,-497.070,26.367
1584598279.681,-298.828,-8.789,4.395,-656.250,8.789
1584598279.685,193.848,17.090,19.043,377.441,-18.555
1584598279.688,304.199,31.250,34.180,706.543,-18.555
1584598279.692,-142.090,11.230,28.809,-210.938,26.367
1584598279.696,-361.816,-7.812,11.230,-772.949,6.348
1584598279.700,61.523,10.254,19.043,90.820,-1.465
1584598279.704,340.820,34.668,37.109,770.996,36.621
1584598279.708,5.371,21.973,33.691,99.121,-20.508
1584598279.712,-367.676,-2.930,19.043,-765.137,-19.531
1584598279.716,-73.730,9.766,23.438,-205.566,22.949
1584598279.720,346.191,31.250,38.086,728.516,34.180
1584598279.724,144.531,24.414,36.621,384.766,46.875
1584598279.727,-331.055,2.441,20.996,-651.367,29.297
1584598279.731,-215.820,1.953,18.066,-488.770,4.395
1584598279.735,280.762,27.832,35.645,581.543,25.391
1584598279.739,264.160,36.621,45.898,609.375,56.152
1584598279.743,-216.797,18.555,34.668,-418.457,40.527
1584598279.747,-299.805,8.301,23.438,-675.781,54.688
1584598279.751,180.176,27.344,34.180,329.102,41.504
1584598279.755,344.727,45.898,46.875,751.953,28.320
1584598279.759,-76.660,32.227,43.457,-109.863,19.531
1584598279.763,-344.238,13.184,28.320,-757.324,29.785
1584598279.767,45.898,22.949,32.227,26.367,26.367
1584598279.770,363.281,41.016,48.828,769.531,42.480
1584598279.774,64.453,37.598,44.922,182.617,103.027
1584598279.778,-348.633,18.066,26.367,-732.422,75.195
1584598279.782,-104.004,20.020,27.344,-276.367,28.809
1584598279.786,345.703,45.898,45.898,696.777,47.852
1584598279.790,193.848,49.316,51.270,452.637,33.203
1584598279.794,-294.434,21.973,35.156,-575.195,16.113
1584598279.798,-233.887,15.625,28.809,-537.109,61.035
1584598279.802,266.113,42.480,48.340,508.789,44.922
1584598279.806,299.316,55.664,56.641,648.438,19.043
1584598279.810,-179.199,34.180,43.457,-337.891,26.855
1584598279.813,-317.383,18.555,30.762,-706.543,27.344
1584598279.817,154.297,42.480,41.504,240.723,91.309
1584598279.821,362.305,64.453,58.105,768.555,86.914
1584598279.825,-40.039,45.898,53.223,-19.043,21.484
1584598279.829,-347.656,22.949,36.133,-757.324,-16.602
1584598279.833,14.648,39.551,43.457,-48.828,-22.949
1584598279.837,375.488,66.895,63.477,784.180,0.488
1584598279.841,117.676,66.406,66.895,291.992,14.648
1584598279.845,-316.406,43.945,54.688,-674.316,3.418
1584598279.849,-112.793,45.898,53.223,-332.520,28.320
1584598279.852,354.492,72.266,71.777,676.270,66.406
1584598279.856,247.070,73.730,76.660,538.574,32.227
1584598279.860,-241.211,46.387,59.570,-514.160,-8.789
1584598279.864,-238.770,36.133,48.340,-602.539,-3.418
1584598279.868,254.883,60.547,63.477,456.543,24.902
1584598279.872,335.938,71.777,74.707,714.844,47.852
1584598279.876,-131.836,52.246,62.500,-239.746,22.461
1584598279.880,-318.359,36.133,49.316,-721.191,-10.742
1584598279.884,127.930,53.223,59.082,179.199,-11.230
1584598279.888,375.977,69.824,72.266,791.992,78.613
1584598279.892,10.742,58.105,66.895,65.918,46.875
1584598279.895,-339.844,34.180,48.828,-743.164,15.625
1584598279.899,-8.301,43.457,51.270,-122.070,40.527
1584598279.903,379.395,67.871,64.941,752.441,27.832
1584598279.907,145.020,60.547,62.988,336.914,56.152
1584598279.911,-307.129,34.668,49.805,-660.156,36.621
1584598279.915,-162.598,30.273,43.457,-412.109,16.602
1584598279.919,317.871,53.223,58.594,622.559,1.953
1584598279.923,260.254,59.570,68.848,580.078,-2.441
1584598279.927,-232.910,39.551,53.711,-446.289,24.414
1584598279.931,-278.320,25.391,42.480,-630.371,-12.695
1584598279.935,209.473,42.969,56.152,390.625,29.785
1584598279.938,335.938,59.082,64.941,742.188,94.727
1584598279.942,-97.168,45.898,55.176,-158.691,66.406
1584598279.946,-329.590,27.832,39.551,-741.699,53.223
1584598279.950,85.449,40.039,43.457,85.938,46.387
1584598279.954,379.883,62.500,60.059,777.344,60.059
1584598279.958,43.457,50.293,55.664,142.090,41.016
1584598279.962,-346.191,19.531,38.574,-731.934,64.453
1584598279.966,-62.012,25.879,39.551,-212.891,67.871
1584598279.970,357.910,52.246,55.176,725.586,59.082
1584598279.974,171.387,52.734,58.105,423.340,66.406
1584598279.977,-302.246,24.902,38.086,-612.793,-33.203
1584598279.981,-206.543,21.484,31.738,-512.207,-1.953
1584598279.985,283.691,45.410,50.781,545.410,36.133
1584598279.989,279.785,52.246,57.617,620.605,-10.742
1584598279.993,-207.031,29.785,43.457,-395.020,-24.414
1584598279.997,-314.453,9.766,28.809,-702.637,19.043
1584598280.001,166.016,31.738,39.551,286.133,57.129
1584598280.005,344.238,51.270,51.758,750.000,17.578
1584598280.009,-72.754,36.133,43.945,-85.449,4.883
1584598280.013,-358.398,15.625,27.832,-762.207,22.949
1584598280.017,25.879,29.297,34.668,2.441,28.320
1584598280.020,363.281,52.734,55.176,773.926,-11.230
1584598280.024,68.848,43.457,53.711,212.891,12.695
1584598280.028,-350.098,16.113,33.203,-714.355,55.664
1584598280.032,-115.723,19.531,34.180,-297.363,61.523
1584598280.036,332.520,44.922,54.688,684.570,29.297
1584598280.040,192.871,44.922,54.688,464.355,48.828
1584598280.044,-286.621,22.461,34.180,-581.055,78.613
1584598280.048,-240.234,16.113,27.344,-558.594,70.312
1584598280.052,253.906,38.574,42.969,497.070,62.012
1584598280.056,299.316,52.734,52.246,662.598,-24.414
1584598280.060,-164.062,34.180,40.527,-318.359,-8.301
1584598280.063,-315.430,15.137,25.879,-725.098,-9.766
1584598280.067,139.648,35.645,36.621,212.891,-46.875
1584598280.071,358.887,57.129,51.270,762.695,15.625
1584598280.075,-28.809,44.434,49.316,-5.859,-31.250
1584598280.079,-349.609,20.996,35.645,-751.953,-21.973
1584598280.083,2.930,29.785,38.574,-71.289,53.711
1584598280.087,370.117,53.223,52.734,763.672,54.688
1584598280.091,108.887,44.922,51.758,297.363,57.617
1584598280.095,-334.473,20.020,34.180,-680.664,52.734
1584598280.099,-149.414,19.531,30.273,-386.230,9.766
1584598280.102,321.777,43.457,48.340,628.906,4.395
1584598280.106,241.211,51.758,55.176,525.879,-18.066
1584598280.110,-250.977,27.832,39.551,-510.254,-25.879
1584598280.114,-269.043,18.066,30.273,-619.141,62.012
1584598280.118,225.098,40.527,47.852,418.457,57.129
1584598280.122,312.500,51.270,60.059,702.148,17.090
1584598280.126,-130.859,33.203,50.293,-219.238,72.266
1584598280.130,-322.266,18.555,36.133,-734.375,33.691
1584598280.134,109.863,35.645,42.480,135.742,14.648
1584598280.138,369.629,53.711,57.617,767.578,56.641
1584598280.142,9.277,40.527,52.246,71.777,56.641
1584598280.145,-354.980,12.695,35.156,-756.348,46.875
1584598280.149,-43.457,24.414,38.574,-175.293,12.207
1584598280.153,357.422,52.246,56.641,739.746,-10.254
1584598280.157,145.996,48.828,59.570,370.605,37.598
1584598280.161,-313.965,24.414,44.922,-651.367,17.578
1584598280.165,-176.270,22.949,41.992,-446.289,31.738
1584598280.169,310.547,47.852,57.129,603.516,70.312
1584598280.173,269.043,52.734,59.082,591.797,7.324
1584598280.177,-214.844,33.691,44.922,-436.035,-11.719
1584598280.181,-279.297,22.949,35.645,-664.551,-41.504
1584598280.185,194.336,39.551,44.434,344.727,-18.066
1584598280.188,331.543,51.758,56.152,721.680,66.895
1584598280.192,-97.656,35.156,48.340,-162.598,77.637
1584598280.196,-350.098,17.578,31.250,-764.648,13.184
1584598280.200,52.734,32.227,38.574,45.410,-3.418
1584598280.204,360.840,52.246,55.664,765.625,34.668
1584598280.208,41.016,39.551,54.199,152.344,44.922
1584598280.212,-357.910,15.625,37.109,-734.375,40.527
1584598280.216,-88.867,21.973,39.062,-240.723,28.320
1584598280.220,338.867,43.945,53.223,709.961,41.504
1584598280.224,176.270,43.457,55.176,428.711,25.879
1584598280.227,-292.969,20.508,46.875,-600.586,6.836
1584598280.231,-219.727,15.137,35.645,-516.113,40.039
1584598280.235,265.625,35.156,42.969,520.996,58.594
1584598280.239,278.320,44.434,53.223,613.281,-32.715
1584598280.243,-188.965,27.832,43.457,-359.863,-44.922
1584598280.247,-304.688,15.137,31.250,-687.012,21.484
1584598280.251,165.039,32.715,43.945,273.926,1.953
1584598280.255,352.539,51.758,61.035,759.766,34.180
1584598280.259,-54.688,38.574,52.734,-58.594,25.879
1584598280.263,-351.074,16.113,34.668,-750.000,49.805
1584598280.267,16.602,28.320,38.574,-22.461,40.527
1584598280.270,364.258,52.246,54.688,765.137,-8.789
1584598280.274,88.379,47.363,53.223,236.816,15.625
1584598280.278,-333.984,20.996,31.738,-716.797,14.648
1584598280.282,-121.094,20.996,31.250,-326.660,25.391
1584598280.286,328.613,48.340,51.270,673.340,19.043
1584598280.290,212.891,55.664,55.176,499.512,62.012
1584598280.294,-264.160,34.668,39.551,-538.086,32.227
1584598280.298,-234.375,24.902,32.227,-579.590,12.695
1584598280.302,252.930,47.363,46.875,472.656,64.941
1584598280.306,305.664,61.523,59.082,685.059,67.383
1584598280.310,-152.832,41.992,50.781,-274.902,26.855
1584598280.313,-315.918,25.879,37.109,-709.961,11.230
1584598280.317,131.836,43.457,45.410,206.055,51.270
1584598280.321,362.793,58.105,58.105,769.531,25.391
1584598280.325,-12.207,41.016,50.293,12.207,-2.930
1584598280.329,-349.121,16.602,30.273,-765.137,-10.742
1584598280.333,-16.113,27.344,32.227,-106.934,-19.043
1584598280.337,369.629,51.758,48.828,757.324,28.320
1584598280.341,135.742,50.293,51.270,323.242,2.441
1584598280.345,-312.012,26.367,35.156,-666.016,-37.598
1584598280.349,-147.949,21.973,30.762,-382.812,55.176
1584598280.352,320.801,44.922,48.340,642.578,70.312
1584598280.356,245.117,50.781,53.223,556.641,37.109
1584598280.360,-236.816,27.832,41.016,-475.586,7.324
1584598280.364,-265.625,18.066,34.180,-625.977,-14.648
1584598280.368,214.844,37.109,43.945,393.555,17.578
1584598280.372,322.266,48.340,52.734,702.637,98.145
1584598280.376,-120.117,33.691,47.852,-199.707,119.629
1584598280.380,-336.914,16.602,35.156,-730.957,27.344
1584598280.384,86.426,31.250,41.016,114.258,-17.090
1584598280.388,365.723,51.758,54.688,770.996,29.297
1584598280.392,31.738,43.457,52.246,109.375,-11.230
1584598280.395,-340.820,18.066,37.109,-732.910,-16.602
1584598280.399,-51.270,20.508,38.086,-184.082,22.949
1584598280.403,358.398,46.387,57.617,728.027,-17.090
1584598280.407,161.133,47.852,60.059,390.137,-0.977
1584598280.411,-311.523,19.043,37.598,-629.395,18.555
1584598280.415,-204.102,12.207,29.785,-486.328,-25.391
1584598280.419,284.180,41.504,45.410,552.734,32.227
1584598280.423,265.137,51.758,53.223,602.051,58.594
1584598280.427,-210.938,29.297,43.945,-400.391,-6.348
1584598280.431,-288.086,16.602,33.203,-663.574,23.438
1584598280.435,184.570,37.598,43.457,327.637,57.617
1584598280.438,337.891,54.199,55.176,747.559,38.574
1584598280.442,-76.660,40.039,50.781,-104.492,8.301
1584598280.446,-335.938,18.555,37.598,-747.070,29.297
1584598280.450,46.875,25.879,40.039,25.879,38.086
1584598280.454,356.445,48.828,54.688,764.160,10.254
1584598280.458,51.270,39.551,52.734,177.734,-3.906
1584598280.462,-349.121,16.602,38.574,-732.422,0.977
1584598280.466,-98.145,25.391,34.668,-277.344,20.996
1584598280.470,333.496,46.875,49.805,690.918,58.105
1584598280.474,184.082,45.410,58.594,452.148,17.578
1584598280.477,-289.062,23.926,43.457,-578.613,-16.113
1584598280.481,-229.980,23.438,31.738,-532.227,51.758
1584598280.485,268.555,50.293,47.852,523.438,41.992
1584598280.489,296.875,55.176,56.641,659.180,42.480
1584598280.493,-182.129,31.250,41.504,-338.379,75.684
1584598280.497,-308.105,19.043,28.809,-706.055,30.273
1584598280.501,149.414,38.086,40.527,248.535,-14.160
1584598280.505,350.098,54.688,55.664,758.301,24.414
1584598280.509,-41.992,40.527,47.852,-37.109,-10.742
1584598280.513,-348.145,19.531,30.762,-754.395,-6.836
1584598280.517,16.113,30.273,34.668,-47.852,40.527
1584598280.520,365.234,51.758,50.293,758.301,-23.438
1584598280.524,100.098,49.805,53.223,264.160,9.766
1584598280.528,-323.242,28.320,38.086,-687.500,71.777
1584598280.532,-126.465,24.902,32.227,-340.820,69.824
1584598280.536,328.613,46.387,47.363,663.086,57.129
1584598280.540,219.727,50.781,54.688,517.578,11.719
1584598280.544,-267.090,25.391,40.527,-520.020,-6.836
1584598280.548,-257.812,15.625,28.809,-591.309,48.340
1584598280.552,235.352,40.527,40.527,439.453,67.871
1584598280.556,316.895,54.199,52.734,682.129,41.992
1584598280.560,-130.859,37.109,41.992,-253.906,7.812
1584598280.563,-316.406,18.066,27.344,-725.586,18.066
1584598280.567,116.699,31.738,37.598,161.133,62.012
1584598280.571,362.793,54.688,51.758,766.113,12.207
1584598280.575,-6.836,43.457,46.875,55.176,24.902
1584598280.579,-354.980,19.043,34.668,-741.699,73.730
1584598280.583,-29.785,25.879,34.180,-131.836,39.551
1584598280.587,354.492,49.316,48.828,741.211,54.199
1584598280.591,124.512,43.945,50.781,335.449,81.055
1584598280.595,-329.102,14.648,36.133,-660.645,41.504
1584598280.599,-185.547,12.695,32.227,-428.223,66.895
1584598280.602,285.156,40.039,43.457,596.191,71.777
1584598280.606,233.887,49.316,51.758,562.500,40.039
1584598280.610,-240.234,24.414,41.504,-463.379,38.574
1584598280.614,-284.180,12.207,29.785,-656.738,-5.371
1584598280.618,202.637,38.086,41.016,367.188,-21.973
1584598280.622,327.148,53.223,53.223,727.051,50.293
1584598280.626,-106.445,37.109,46.875,-171.387,73.730
1584598280.630,-332.031,21.973,36.621,-751.953,45.410
1584598280.634,67.871,35.156,41.016,79.102,24.414
1584598280.638,354.004,51.270,52.246,762.695,10.742
1584598280.642,30.273,39.062,47.363,115.723,-24.902
1584598280.645,-349.121,16.602,27.832,-746.582,-27.832
1584598280.649,-69.336,22.461,29.297,-213.379,33.691
1584598280.653,342.285,45.898,49.316,717.773,13.184
1584598280.657,160.645,46.875,52.246,397.949,-13.184
1584598280.661,-301.758,27.832,33.691,-613.281,32.227
1584598280.665,-201.172,23.438,26.855,-477.051,80.566
1584598280.669,282.715,43.945,43.945,553.711,103.027
1584598280.673,270.996,52.246,55.176,615.234,27.832
1584598280.677,-203.613,31.738,45.410,-378.418,1.953
1584598280.681,-300.293,18.066,30.762,-669.922,75.684
1584598280.685,166.016,35.645,38.086,304.199,64.941
1584598280.688,338.867,48.828,51.758,742.188,36.133
1584598280.692,-66.406,37.109,45.410,-86.914,18.555
1584598280.696,-347.656,18.555,28.809,-750.488,20.020
1584598280.700,22.949,27.344,32.227,-4.883,-0.488
1584598280.704,351.074,50.293,48.340,756.836,-21.484
1584598280.708,61.035,45.410,46.387,199.707,-1.953
1584598280.712,-353.027,18.555,29.297,-725.586,-12.695
1584598280.716,-112.793,22.949,29.297,-298.340,30.762
1584598280.720,332.031,51.758,48.340,683.105,54.199
1584598280.724,191.895,51.270,52.246,468.750,34.180
1584598280.727,-290.039,22.949,38.574,-568.359,29.297
1584598280.731,-246.582,16.602,30.762,-561.035,3.906
1584598280.735,255.371,44.922,41.992,491.211,27.832
1584598280.739,297.852,54.199,54.199,664.551,45.898
1584598280.743,-171.875,28.809,45.410,-313.477,13.672
1584598280.747,-323.242,11.230,30.273,-727.539,57.129
1584598280.751,125.000,30.762,37.109,214.844,60.547
1584598280.755,343.262,49.805,52.246,767.090,-29.785
1584598280.759,-34.668,36.621,48.828,-4.883,-19.531
1584598280.763,-354.004,14.648,31.738,-753.418,26.855
1584598280.767,-14.648,22.461,34.668,-75.195,31.250
1584598280.770,353.516,44.922,56.152,763.672,62.012
1584598280.774,107.910,44.434,59.570,295.898,54.199
1584598280.778,-326.172,19.531,37.598,-683.594,45.898
1584598280.782,-141.602,19.043,29.297,-366.211,38.574
1584598280.786,316.895,41.992,41.992,647.949,-9.766
1584598280.790,224.609,44.922,45.898,517.090,38.086
1584598280.794,-253.906,25.391,30.762,-515.625,42.969
1584598280.798,-259.277,17.090,22.949,-611.328,-37.598
1584598280.802,209.961,23.926,22.949,412.109,35.156
1584598280.806,272.461,12.207,8.301,664.551,62.988
1584598280.810,-188.477,-18.066,-14.160,-284.668,55.176
1584598280.813,-392.090,-41.992,-37.109,-794.922,101.562
1584598280.817,36.133,-32.715,-32.715,77.148,98.145
1584598280.821,291.992,-17.578,-18.555,707.031,68.848
1584598280.825,-57.617,-28.320,-22.949,9.277,28.320
1584598280.829,-411.133,-50.293,-37.109,-816.895,33.691
1584598280.833,-112.305,-43.457,-34.668,-231.445,54.688
1584598280.837,281.250,-16.602,-16.113,660.645,3.906
1584598280.841,80.566,-10.742,-8.301,294.434,-42.969
1584598280.845,-367.188,-31.738,-19.531,-699.219,52.734
1584598280.849,-236.328,-36.621,-23.926,-502.441,59.082
1584598280.852,241.211,-10.742,-6.836,532.227,-9.766
1584598280.856,204.590,2.441,7.324,536.133,-5.859
1584598280.860,-274.414,-16.113,-1.953,-471.680,20.996
1584598280.864,-335.449,-27.832,-16.113,-698.730,31.250
1584598280.868,146.484,-6.348,-3.418,308.594,49.805
1584598280.872,283.203,8.301,13.672,705.078,52.246
1584598280.876,-141.602,-6.836,8.301,-174.316,54.199
1584598280.880,-379.395,-23.926,-7.812,-777.344,48.828
1584598280.884,23.926,-9.277,1.953,29.297,18.555
1584598280.888,322.754,16.113,20.996,736.816,41.504
1584598280.892,13.184,11.230,20.020,137.207,38.086
1584598280.895,-375.000,-12.695,1.953,-760.742,-15.625
1584598280.899,-112.305,-1.953,0.488,-282.227,-13.672
1584598280.903,316.895,26.855,21.973,680.664,4.395
1584598280.907,147.949,22.949,24.414,406.250,1.953
1584598280.911,-319.824,-1.953,5.859,-621.094,41.992
1584598280.915,-239.258,-5.859,-3.418,-541.016,18.066
1584598280.919,242.188,18.555,14.648,516.113,17.578
1584598280.923,254.883,28.320,25.391,614.258,24.414
1584598280.927,-218.750,5.371,13.672,-386.230,2.930
1584598280.931,-334.473,-7.812,2.930,-713.867,-29.785
1584598280.935,132.812,15.625,13.672,254.883,11.230
1584598280.938,325.195,33.203,26.855,732.422,97.656
1584598280.942,-74.219,16.602,19.531,-95.215,21.484
1584598280.946,-364.746,-0.977,4.395,-780.762,-27.344
1584598280.950,5.859,16.113,9.766,-40.527,28.320
1584598280.954,347.656,38.086,25.391,749.023,97.168
1584598280.958,70.312,30.273,23.438,220.215,83.496
1584598280.962,-354.004,5.859,8.301,-728.516,43.945
1584598280.966,-132.324,8.301,10.742,-339.844,48.828
1584598280.970,326.660,35.645,30.273,656.738,17.090
1584598280.974,206.543,41.016,33.691,478.027,34.180
1584598280.977,-277.344,15.625,20.020,-550.293,61.035
1584598280.981,-253.418,5.859,12.695,-587.891,32.227
1584598280.985,233.887,26.367,25.879,442.383,16.113
1584598280.989,296.875,41.992,43.945,653.809,20.996
1584598280.993,-158.691,28.809,35.645,-288.086,47.852
1584598280.997,-329.102,8.301,17.578,-724.609,28.809
1584598281.001,110.840,24.414,23.926,177.734,2.441
1584598281.005,338.379,42.969,39.062,746.094,-13.672
1584598281.009,-31.250,33.691,36.133,8.789,-32.227
1584598281.013,-354.492,13.672,20.508,-759.277,-28.320
1584598281.017,-24.414,22.461,27.344,-115.723,-56.152
1584598281.020,351.074,46.387,48.340,741.211,-8.301
1584598281.024,119.629,44.922,49.805,307.129,19.043
1584598281.028,-326.172,22.461,34.180,-674.805,13.672
1584598281.032,-160.645,18.555,29.785,-409.180,8.789
1584598281.036,307.129,43.945,44.434,618.164,34.668
1584598281.040,232.910,47.363,50.781,554.199,51.270
1584598281.044,-245.117,20.508,37.109,-479.980,67.871
1584598281.048,-265.625,17.578,30.762,-612.305,88.867
1584598281.052,217.285,45.410,47.363,415.527,84.473
1584598281.056,316.895,51.270,52.734,704.590,46.875
1584598281.060,-122.070,29.785,41.016,-209.961,-1.465
1584598281.063,-339.355,14.160,27.832,-743.164,68.359
1584598281.067,80.078,30.273,32.715,110.352,68.848
1584598281.071,370.605,55.176,47.852,776.855,15.137
1584598281.075,30.273,46.875,44.922,105.469,-4.395
1584598281.079,-357.910,18.555,27.344,-761.230,7.812
1584598281.083,-68.848,21.484,32.715,-193.848,-8.301
1584598281.087,342.285,46.387,53.223,739.258,8.789
1584598281.091,148.438,43.457,52.734,391.602,50.293
1584598281.095,-314.941,20.508,33.691,-626.953,3.418
1584598281.099,-198.730,21.484,31.250,-467.285,4.883
1584598281.102,281.250,45.898,47.852,578.125,63.965
1584598281.106,257.324,53.223,54.199,607.910,15.625
1584598281.110,-217.773,27.832,41.016,-408.203,6.348
1584598281.114,-294.434,12.207,30.273,-666.016,34.668
1584598281.118,182.129,35.156,43.945,317.871,-20.996
1584598281.122,334.961,49.805,56.641,718.750,-27.832
1584598281.126,-82.520,34.180,48.828,-126.953,43.945
1584598281.130,-340.332,15.625,30.762,-741.211,116.211
1584598281.134,44.434,29.297,37.109,35.156,101.562
1584598281.138,363.281,54.688,56.641,768.555,101.562
1584598281.142,66.895,47.852,54.199,187.012,78.613
1584598281.145,-334.473,26.367,37.109,-715.820,-3.906
1584598281.149,-87.891,30.273,36.621,-262.207,-8.301
1584598281.153,343.750,53.223,52.246,702.148,0.000
1584598281.157,194.824,56.641,60.059,471.191,12.207
1584598281.161,-283.691,30.273,46.875,-564.941,38.086
1584598281.165,-228.027,19.531,33.203,-542.969,-22.949
1584598281.169,266.113,45.898,46.875,504.395,-44.434
1584598281.173,293.457,58.105,61.523,657.715,12.695
1584598281.177,-168.457,35.645,51.270,-320.312,-10.742
1584598281.181,-295.898,20.508,38.086,-689.941,-23.926
1584598281.185,151.855,43.945,50.293,261.230,39.062
1584598281.188,350.586,62.500,64.453,773.438,27.832
1584598281.192,-35.645,46.875,58.594,-20.508,-0.977
1584598281.196,-334.473,25.879,41.992,-739.746,53.223
1584598281.200,20.996,39.551,48.340,-25.391,36.621
1584598281.204,371.582,64.941,65.430,787.109,26.367
1584598281.208,104.492,53.711,59.570,267.578,35.645
1584598281.212,-326.172,26.855,43.457,-694.824,41.504
1584598281.216,-121.582,34.668,41.504,-337.402,64.941
1584598281.220,336.914,63.477,60.059,668.457,69.824
1584598281.224,237.793,69.824,72.266,533.691,58.594
1584598281.227,-239.746,54.199,58.594,-497.559,32.227
1584598281.231,-222.168,58.594,55.176,-559.082,20.996
1584598281.235,278.320,86.914,83.008,492.188,4.395
1584598281.239,355.469,97.656,103.027,731.934,12.695
1584598281.243,-100.098,80.566,91.309,-209.961,16.113
1584598281.247,-284.180,63.965,72.754,-674.805,43.945
1584598281.251,154.785,78.613,81.543,226.562,54.688
1584598281.255,403.320,95.215,97.168,817.871,19.531
1584598281.259,42.480,84.473,91.797,89.355,47.363
1584598281.263,-306.641,62.012,72.754,-705.566,68.359
1584598281.267,14.160,69.824,73.730,-85.449,23.926
1584598281.270,399.414,90.820,87.891,777.832,11.230
1584598281.274,177.246,85.449,86.914,362.793,34.668
1584598281.278,-273.926,62.012,75.684,-617.676,0.488
1584598281.282,-122.070,60.059,70.801,-375.488,29.297
1584598281.286,350.098,80.078,83.008,656.738,67.871
1584598281.290,290.527,82.520,88.867,611.328,2.441
1584598281.294,-188.965,59.082,73.730,-415.527,-10.742
1584598281.298,-237.793,47.363,61.523,-599.121,19.531
1584598281.302,243.164,65.918,74.219,412.598,47.363
1584598281.306,364.746,79.102,84.473,755.859,52.246
1584598281.310,-72.266,62.500,72.266,-140.137,41.016
1584598281.313,-306.641,39.551,54.199,-713.867,94.238
1584598281.317,98.633,51.270,62.012,98.633,33.691
1584598281.321,389.648,74.219,76.172,788.574,26.367
1584598281.325,65.430,68.848,71.777,160.645,68.359
1584598281.329,-319.336,40.039,54.199,-710.449,8.301
1584598281.333,-47.852,40.039,52.246,-198.242,-36.621
1584598281.337,365.234,65.430,68.359,740.234,24.414
1584598281.341,183.105,62.988,72.754,434.570,33.203
1584598281.345,-283.691,40.039,57.129,-594.238,-32.227
1584598281.349,-186.523,36.621,47.852,-467.773,26.855
1584598281.352,296.875,58.105,62.500,575.684,27.832
1584598281.356,289.062,61.523,71.289,642.090,-23.438
1584598281.360,-189.453,36.621,56.641,-370.117,-19.531
1584598281.364,-284.668,28.320,41.504,-675.293,-2.930
1584598281.368,187.988,50.293,51.758,313.477,35.156
1584598281.372,368.652,61.523,63.965,766.602,34.668
1584598281.376,-47.852,48.340,52.734,-77.637,23.926
1584598281.380,-350.098,25.391,35.645,-757.324,2.930
1584598281.384,21.484,28.320,46.387,7.324,16.113
1584598281.388,361.328,49.805,65.918,772.949,54.688
1584598281.392,77.148,46.875,64.453,205.566,54.688
1584598281.395,-340.332,20.020,46.387,-717.285,39.062
1584598281.399,-105.957,23.438,42.969,-294.434,-10.742
1584598281.403,337.891,51.758,56.641,683.105,1.953
1584598281.407,194.824,52.246,54.199,453.613,-8.301
1584598281.411,-282.715,26.367,34.180,-578.613,7.324
1584598281.415,-240.234,19.043,29.785,-557.617,20.508
1584598281.419,250.000,42.969,46.387,486.816,18.555
1584598281.423,299.316,55.664,57.617,665.039,36.621
1584598281.427,-162.109,39.551,49.316,-299.316,-19.043
1584598281.431,-312.012,25.879,33.691,-705.566,42.969
1584598281.435,138.672,41.504,41.016,218.750,53.711
1584598281.438,352.539,56.152,55.664,760.742,29.297
1584598281.442,-30.273,42.480,53.223,-4.883,51.758
1584598281.446,-346.191,22.461,37.109,-749.023,58.105
1584598281.450,-4.883,29.785,38.086,-78.125,87.891
1584598281.454,357.910,51.758,54.199,746.094,63.477
1584598281.458,105.469,48.828,53.223,295.410,17.090
1584598281.462,-333.008,22.461,36.621,-666.504,9.277
1584598281.466,-145.020,23.438,32.715,-363.770,22.461
1584598281.470,321.289,49.805,46.387,643.066,-18.066
1584598281.474,234.375,52.246,53.711,530.762,-31.250
1584598281.477,-245.117,28.320,40.527,-493.164,-3.906
1584598281.481,-255.371,21.973,30.273,-601.562,-1.953
1584598281.485,228.516,46.387,43.457,431.641,32.227
1584598281.489,317.871,57.129,56.152,710.938,-0.977
1584598281.493,-127.441,35.156,47.852,-227.539,-31.250
1584598281.497,-319.824,19.531,32.715,-736.328,19.531
1584598281.501,105.957,39.062,42.969,148.438,56.641
1584598281.505,358.887,56.152,57.617,777.344,40.039
1584598281.509,6.836,40.039,49.316,75.684,-1.465
1584598281.513,-343.750,18.555,30.762,-745.117,24.902
1584598281.517,-40.039,33.203,34.180,-156.738,30.762
1584598281.520,345.703,54.199,53.711,737.793,-22.949
1584598281.524,131.348,46.875,54.199,354.980,0.488
1584598281.528,-317.871,21.973,37.598,-649.414,24.414
1584598281.532,-181.152,18.066,33.691,-449.707,40.527
1584598281.536,289.551,44.922,48.340,587.891,28.320
1584598281.540,253.906,51.758,55.664,580.566,14.160
1584598281.544,-218.750,28.320,42.969,-443.359,37.598
1584598281.548,-288.574,20.996,30.762,-653.809,44.922
1584598281.552,188.965,42.480,42.969,348.145,18.555
1584598281.556,325.684,54.199,54.688,726.562,19.043
1584598281.560,-104.980,36.621,44.922,-145.996,70.801
1584598281.563,-346.191,14.648,26.855,-749.512,77.637
1584598281.567,52.734,26.367,32.715,57.129,50.781
1584598281.571,347.656,47.852,52.246,760.254,33.203
1584598281.575,38.086,40.527,48.340,145.996,5.371
1584598281.579,-347.168,17.578,32.715,-736.328,-12.695
1584598281.583,-88.867,20.508,35.645,-246.582,0.000
1584598281.587,333.008,45.410,48.828,690.918,-7.324
1584598281.591,166.992,48.340,51.270,406.250,-21.973
1584598281.595,-299.316,21.973,35.645,-602.051,-45.898
1584598281.599,-214.355,15.137,25.391,-511.230,1.953
1584598281.602,273.438,39.062,41.992,528.320,1.465
1584598281.606,277.344,48.828,54.199,637.207,-25.879
1584598281.610,-191.895,30.762,44.434,-347.656,51.758
1584598281.614,-307.129,16.602,31.250,-683.105,103.516
1584598281.618,155.762,34.668,35.156,275.391,54.199
1584598281.622,342.773,51.758,46.875,751.953,35.156
1584598281.626,-62.988,36.133,44.922,-57.617,70.312
1584598281.630,-352.539,11.719,28.320,-745.117,104.004
1584598281.634,27.344,25.391,30.762,-14.160,45.898
1584598281.638,367.188,50.781,48.828,767.090,38.574
1584598281.642,78.613,42.969,47.363,236.816,30.273
1584598281.645,-340.820,16.602,30.762,-712.402,2.930
1584598281.649,-115.234,22.461,29.785,-328.125,55.176
1584598281.653,331.055,49.316,44.922,670.898,59.082
1584598281.657,210.938,48.340,52.246,495.117,1.953
1584598281.661,-262.695,28.809,40.527,-532.715,-27.344
1584598281.665,-237.793,25.391,29.297,-563.965,21.484
1584598281.669,250.977,46.387,41.992,468.750,9.766
1584598281.673,306.152,57.617,53.711,667.969,20.508
1584598281.677,-157.715,35.645,42.969,-289.062,39.551
1584598281.681,-320.801,16.602,21.973,-727.539,13.184
1584598281.685,119.141,35.156,32.715,195.312,15.137
1584598281.688,351.562,54.199,50.781,768.555,58.105
1584598281.692,-17.578,42.969,44.434,10.742,74.219
1584598281.696,-353.027,20.996,28.320,-747.559,25.391
1584598281.700,-20.996,27.832,33.203,-89.355,42.969
1584598281.704,355.469,51.270,50.781,759.766,64.453
1584598281.708,117.188,46.875,49.316,307.617,61.523
1584598281.712,-327.148,21.484,31.738,-677.734,90.332
1584598281.716,-162.598,18.066,28.809,-395.508,33.203
1584598281.720,303.711,44.434,43.945,619.629,14.648
1584598281.724,232.910,52.246,51.758,543.457,40.039
1584598281.727,-244.629,29.785,37.109,-485.840,40.039
1584598281.731,-274.902,19.043,23.438,-634.277,56.641
1584598281.735,205.566,36.133,32.715,384.277,39.062
1584598281.739,311.035,46.875,45.410,686.035,7.324
1584598281.743,-128.906,29.297,40.527,-211.914,96.191
1584598281.747,-336.426,9.766,24.902,-738.770,127.441
1584598281.751,87.891,28.809,32.227,110.352,62.012
1584598281.755,362.793,53.711,52.246,771.484,44.922
1584598281.759,19.531,38.574,49.805,100.586,5.859
1584598281.763,-353.516,11.719,31.738,-739.746,23.438
1584598281.767,-60.059,21.973,30.762,-187.012,1.465
1584598281.770,345.215,46.387,45.410,716.309,-34.668
1584598281.774,147.461,44.434,51.270,374.512,-7.324
1584598281.778,-309.570,18.066,35.645,-639.648,-3.906
1584598281.782,-189.941,17.578,30.273,-479.004,16.602
1584598281.786,285.156,45.898,48.828,571.289,74.219
1584598281.790,254.395,49.805,54.199,608.887,47.363
1584598281.794,-219.727,26.367,36.621,-409.180,-26.855
1584598281.798,-294.434,13.672,25.879,-668.945,-19.531
1584598281.802,180.176,36.133,39.062,326.660,28.320
1584598281.806,335.449,54.199,48.828,730.957,26.855
1584598281.810,-81.055,37.598,42.480,-126.465,1.953
1584598281.813,-335.938,17.090,30.273,-743.164,-6.836
1584598281.817,52.734,32.715,36.133,42.969,36.133
1584598281.821,358.887,52.246,48.340,772.461,31.738
1584598281.825,53.223,40.039,44.922,162.598,-11.230
1584598281.829,-340.820,17.090,28.320,-753.418,9.277
1584598281.833,-87.402,23.926,29.297,-264.648,59.570
1584598281.837,338.867,49.805,51.758,706.543,104.004
1584598281.841,187.988,50.293,56.641,447.754,50.293
1584598281.845,-284.668,24.902,34.180,-582.031,26.855
1584598281.849,-222.168,18.066,24.902,-532.227,33.691
1584598281.852,256.348,39.062,41.016,513.672,45.898
1584598281.856,270.996,47.363,51.270,641.113,57.617
1584598281.860,-187.988,29.297,42.480,-335.449,61.035
1584598281.864,-313.477,12.695,28.320,-701.660,47.852
1584598281.868,141.113,28.320,40.527,244.141,67.383
1584598281.872,342.285,49.316,57.129,749.023,77.148
1584598281.876,-45.898,36.621,45.410,-50.781,11.719
1584598281.880,-345.215,13.184,26.855,-755.371,8.789
1584598281.884,9.766,24.902,35.156,-44.922,39.062
1584598281.888,359.375,46.387,50.781,762.695,0.977
1584598281.892,103.516,44.434,48.340,260.742,-67.383
1584598281.895,-320.312,23.438,30.762,-696.289,-23.926
1584598281.899,-125.488,24.902,26.367,-341.309,14.160
1584598281.903,324.707,46.387,40.039,653.809,-25.391
1584598281.907,209.473,45.898,46.875,506.836,-0.488
1584598281.911,-268.066,19.043,38.086,-519.043,16.113
1584598281.915,-245.605,10.742,27.344,-584.961,30.762
1584598281.919,241.699,37.598,38.574,445.312,38.574
1584598281.923,302.734,50.293,52.246,681.641,36.621
1584598281.927,-145.020,30.762,41.504,-258.301,51.270
1584598281.931,-321.777,13.672,27.344,-717.285,-9.766
1584598281.935,104.492,28.320,38.574,170.898,-20.508
1584598281.938,349.121,48.340,51.270,759.277,28.320
1584598281.942,-8.301,36.621,41.016,38.574,43.945
1584598281.946,-351.074,8.301,26.855,-757.324,31.738
1584598281.950,-28.809,20.020,33.691,-133.301,-2.441
1584598281.954,349.121,48.340,48.340,741.211,18.555
1584598281.958,115.723,40.527,46.387,328.125,16.113
1584598281.962,-326.172,10.742,28.809,-678.711,9.766
1584598281.966,-167.969,13.672,27.344,-431.152,26.367
1584598281.970,305.176,42.480,44.922,617.188,40.527
1584598281.974,241.211,47.852,53.711,569.824,23.438
1584598281.977,-242.188,24.414,40.039,-458.008,3.906
1584598281.981,-278.320,16.113,25.879,-635.254,20.508
1584598281.985,193.848,35.156,36.133,373.535,6.348
1584598281.989,308.594,47.852,48.340,711.426,26.855
1584598281.993,-112.793,32.227,40.039,-183.105,18.066
1584598281.997,-338.867,12.207,24.902,-741.699,7.812
1584598282.001,66.895,28.809,31.250,91.309,29.297
1584598282.005,350.098,49.316,45.410,764.648,52.246
1584598282.009,22.461,39.551,44.922,122.070,57.617
1584598282.013,-348.145,16.113,31.250,-734.863,41.016
1584598282.017,-62.500,21.484,30.273,-209.473,29.297
1584598282.020,344.238,43.457,44.922,708.496,-30.762
1584598282.024,159.180,45.410,49.805,394.043,19.043
1584598282.028,-297.363,25.391,39.551,-607.910,39.062
1584598282.032,-197.266,19.531,30.762,-475.586,19.043
1584598282.036,277.344,41.504,41.992,554.199,78.125
1584598282.040,268.066,47.363,52.246,610.352,36.133
1584598282.044,-200.684,26.367,42.969,-387.207,43.457
1584598282.048,-294.434,13.672,31.738,-671.875,36.133
1584598282.052,171.875,30.273,41.016,305.664,13.672
1584598282.056,337.402,47.363,55.664,739.746,39.062
1584598282.060,-75.684,37.598,50.781,-89.844,32.715
1584598282.063,-345.215,16.602,32.227,-749.023,23.926
1584598282.067,34.668,25.879,34.668,-6.836,28.320
1584598282.071,357.422,50.781,52.734,760.742,61.035
1584598282.075,69.336,43.945,49.805,213.379,75.684
1584598282.079,-336.426,17.090,30.762,-710.449,29.785
1584598282.083,-100.098,22.461,33.691,-282.715,60.547
1584598282.087,333.008,44.922,50.293,686.035,42.969
1584598282.091,183.105,41.992,52.734,466.797,-20.996
1584598282.095,-287.598,16.602,36.133,-568.848,-20.996
1584598282.099,-236.816,9.277,25.879,-553.223,68.359
1584598282.102,243.164,36.621,41.016,501.465,85.449
1584598282.106,279.297,49.805,48.828,656.738,47.363
1584598282.110,-178.711,28.320,40.039,-318.848,77.148
1584598282.114,-315.430,17.090,26.855,-713.379,97.656
1584598282.118,136.230,40.527,31.738,225.586,42.969
1584598282.122,354.004,58.105,45.898,761.719,-10.742
1584598282.126,-28.320,43.945,44.922,-12.695,-11.719
1584598282.130,-348.145,20.996,29.785,-758.301,17.578
1584598282.134,-9.277,27.832,34.180,-78.125,8.789
1584598282.138,345.215,49.805,56.152,750.000,15.137
1584598282.142,97.168,45.410,57.129,275.391,-8.789
1584598282.145,-331.055,20.020,37.109,-686.035,0.977
1584598282.149,-144.531,20.020,31.738,-375.488,28.320
1584598282.153,311.523,43.945,46.875,628.906,-23.438
1584598282.157,216.797,49.805,52.246,514.160,5.371
1584598282.161,-247.070,32.227,38.574,-501.953,62.012
1584598282.165,-243.164,23.926,29.785,-584.473,69.824
1584598282.169,231.445,41.504,42.969,438.477,14.160
1584598282.173,308.105,49.805,52.734,692.871,5.371
1584598282.177,-135.254,32.715,40.039,-230.957,-3.906
1584598282.181,-333.496,17.090,24.902,-725.586,-3.906
1584598282.185,88.379,31.250,33.203,150.391,21.484
1584598282.188,349.609,49.805,49.316,769.531,-22.949
1584598282.192,-2.441,37.109,44.922,64.941,9.766
1584598282.196,-360.352,13.672,28.320,-745.605,106.934
1584598282.200,-50.781,21.484,29.297,-163.086,57.617
1584598282.204,347.168,47.363,46.875,721.680,16.113
1584598282.208,134.766,45.898,49.316,350.586,83.008
1584598282.212,-316.406,18.555,30.762,-646.973,38.574
1584598282.216,-172.363,19.531,26.367,-438.965,-8.301
1584598282.220,298.828,44.434,44.434,596.680,47.363
1584598282.224,244.629,47.852,51.270,586.426,38.086
1584598282.227,-232.422,24.902,37.598,-431.641,5.371
1584598282.231,-289.062,12.207,24.902,-646.973,28.809
1584598282.235,186.523,33.203,35.156,361.816,74.219
1584598282.239,318.359,49.316,47.363,729.980,34.180
1584598282.243,-104.004,31.738,38.574,-161.621,-39.062
1584598282.247,-337.891,12.207,22.949,-759.766,-9.766
1584598282.251,64.453,30.762,30.273,57.129,50.293
1584598282.255,360.352,53.711,45.898,774.902,72.266
1584598282.259,41.992,39.551,42.480,147.461,-26.367
1584598282.263,-343.750,11.719,21.973,-743.652,-79.102
1584598282.267,-81.055,19.043,24.414,-240.234,2.441
1584598282.270,336.914,43.457,45.410,705.078,22.461
1584598282.274,173.340,44.434,47.852,418.945,8.301
1584598282.278,-287.598,23.438,31.738,-598.145,40.039
1584598282.282,-207.520,19.531,25.879,-504.395,87.402
1584598282.286,269.043,41.504,40.039,534.180,22.949
1584598282.290,275.391,48.340,47.363,618.164,-13.672
1584598282.294,-184.570,29.785,38.086,-377.441,43.945
1584598282.298,-291.992,20.996,28.809,-684.082,-5.371
1584598282.302,161.133,40.039,34.668,280.273,0.000
1584598282.306,337.402,55.664,44.434,742.676,29.785
1584598282.310,-55.176,41.016,42.969,-67.871,38.574
1584598282.313,-336.426,17.578,26.367,-744.141,45.898
1584598282.317,25.391,30.762,29.297,-10.742,59.570
1584598282.321,354.004,54.199,47.852,762.695,66.895
1584598282.325,77.148,48.340,45.410,227.051,37.109
1584598282.329,-337.891,22.949,27.344,-701.172,29.785
1584598282.333,-121.094,20.508,27.832,-315.430,5.859
1584598282.337,322.754,43.945,43.945,655.273,0.977
1584598282.341,197.266,49.805,47.363,477.539,25.391
1584598282.345,-274.414,29.297,37.598,-535.645,65.430
1584598282.349,-240.234,20.996,32.227,-558.594,21.973
1584598282.352,243.652,40.527,41.992,474.121,-49.805
1584598282.356,296.387,50.293,49.805,666.504,-14.160
1584598282.360,-163.574,28.320,40.039,-288.574,4.395
1584598282.364,-325.684,11.230,25.391,-708.984,42.969
1584598282.368,120.605,31.738,32.227,202.148,30.273
1584598282.372,349.121,51.758,48.828,765.137,49.805
1584598282.376,-22.461,39.551,45.410,18.555,25.391
1584598282.380,-346.191,16.602,26.855,-752.930,-3.418
1584598282.384,-9.277,23.438,30.273,-96.680,73.242
1584598282.388,361.816,51.758,52.734,755.859,71.289
1584598282.392,121.094,48.828,57.617,313.477,10.742
1584598282.395,-318.848,17.578,36.621,-676.758,13.672
1584598282.399,-147.461,18.066,26.367,-396.484,33.203
1584598282.403,314.941,43.457,44.922,630.371,-14.160
1584598282.407,234.375,44.434,53.223,548.340,-21.484
1584598282.411,-243.164,20.996,35.156,-477.539,28.809
1584598282.415,-259.277,13.184,25.391,-612.793,51.270
1584598282.419,229.492,38.086,40.527,410.645,5.859
1584598282.423,327.148,51.270,51.758,715.820,-4.395
1584598282.427,-117.676,30.762,43.457,-196.777,31.738
1584598282.431,-323.242,13.672,29.785,-723.145,44.922
1584598282.435,92.773,30.273,36.621,127.441,35.156
1584598282.438,357.910,48.340,53.223,776.855,17.090
1584598282.442,19.531,40.039,50.293,100.098,41.016
1584598282.446,-342.285,19.043,32.715,-739.746,41.504
1584598282.450,-53.711,21.484,30.273,-175.781,29.785
1584598282.454,340.332,42.969,44.434,725.586,78.125
1584598282.458,140.137,39.551,48.340,372.070,60.547
1584598282.462,-312.988,17.090,30.273,-632.324,-53.711
1584598282.466,-196.777,14.648,25.879,-459.473,-15.625
1584598282.470,274.902,39.062,44.922,577.148,54.688
1584598282.474,251.465,48.828,49.805,588.867,53.223
1584598282.477,-219.727,29.297,40.527,-409.668,82.031
1584598282.481,-291.504,16.602,32.715,-649.414,43.457
1584598282.485,175.781,34.668,39.551,313.965,-0.977
1584598282.489,321.777,49.805,49.805,712.402,17.090
1584598282.493,-91.797,32.227,42.480,-134.766,12.207
1584598282.497,-338.867,13.672,25.391,-747.559,-27.832
1584598282.501,49.316,27.832,30.762,41.504,-9.277
1584598282.505,351.074,50.293,49.316,766.602,19.531
1584598282.509,46.387,43.457,46.875,178.223,44.434
1584598282.513,-344.238,17.090,28.320,-723.145,26.855
1584598282.517,-86.914,21.973,26.855,-265.137,47.363
1584598282.520,337.891,46.875,43.945,694.824,66.406
1584598282.524,183.594,47.363,48.340,442.383,35.156
1584598282.528,-281.738,24.414,34.668,-577.148,28.809
1584598282.532,-220.703,19.531,23.438,-528.320,104.004
1584598282.536,262.207,41.504,35.645,505.371,97.168
1584598282.540,283.203,48.828,46.875,641.113,59.570
1584598282.544,-186.523,26.855,38.086,-340.332,53.223
1584598282.548,-307.617,11.719,28.809,-688.477,20.020
1584598282.552,153.320,32.227,39.062,264.648,35.645
1584598282.556,345.215,51.270,52.246,755.859,32.227
1584598282.560,-47.852,38.574,46.875,-40.527,5.859
1584598282.563,-343.262,19.043,29.785,-749.512,-11.230
1584598282.567,20.020,31.250,31.738,-36.621,-24.414
1584598282.571,365.234,53.223,48.340,762.207,6.836
1584598282.575,100.098,49.316,48.828,248.535,45.410
1584598282.579,-321.289,25.879,30.273,-700.195,0.977
1584598282.583,-121.582,25.879,27.344,-325.195,-24.902
1584598282.587,325.195,51.270,42.969,681.641,36.621
1584598282.591,215.332,55.176,45.898,512.695,33.691
1584598282.595,-259.277,27.832,32.227,-520.508,0.977
1584598282.599,-243.652,17.578,26.855,-570.801,-5.371
1584598282.602,237.305,40.527,44.434,460.938,19.531
1584598282.606,301.270,54.199,54.688,682.129,58.594
1584598282.610,-145.996,36.133,41.992,-262.695,48.828
1584598282.614,-321.289,17.578,28.809,-717.285,42.480
1584598282.618,108.887,33.691,42.480,180.176,65.430
1584598282.622,346.680,53.711,55.664,759.277,53.223
1584598282.626,-12.695,42.969,48.340,37.109,7.324
1584598282.630,-342.285,16.113,30.273,-738.281,3.418
1584598282.634,-16.113,23.926,29.785,-116.211,20.020
1584598282.638,355.469,52.734,42.480,746.094,18.066
1584598282.642,118.652,49.805,44.434,325.684,24.902
1584598282.645,-326.172,24.902,27.344,-667.480,-19.043
1584598282.649,-167.480,23.926,24.902,-421.387,-20.508
1584598282.653,300.781,47.852,44.434,604.980,33.203
1584598282.657,233.398,52.734,49.316,556.641,22.949
1584598282.661,-245.117,29.785,34.668,-458.008,56.641
1584598282.665,-279.785,17.578,25.879,-621.582,96.680
1584598282.669,201.172,38.086,38.574,382.812,63.477
1584598282.673,316.895,51.270,48.340,714.844,62.988
1584598282.677,-116.699,30.762,35.645,-177.246,19.043
1584598282.681,-335.938,12.695,17.090,-734.863,-12.695
1584598282.685,79.102,32.715,26.855,98.633,44.434
1584598282.688,358.887,53.223,46.387,770.996,58.594
1584598282.692,33.203,41.016,44.922,128.906,0.488
1584598282.696,-337.402,16.602,26.855,-721.191,20.020
1584598282.700,-62.500,23.926,28.809,-196.289,18.066
1584598282.704,346.680,53.223,48.340,723.633,28.320
1584598282.708,163.574,48.340,49.316,400.391,23.926
1584598282.712,-297.852,18.066,29.297,-628.418,-27.832
1584598282.716,-192.871,17.578,19.531,-491.211,14.648
1584598282.720,281.250,41.504,35.645,551.270,31.738
1584598282.724,255.859,47.852,47.852,602.539,1.953
1584598282.727,-210.938,30.273,37.598,-393.066,52.734
1584598282.731,-294.922,20.020,27.832,-667.969,55.664
1584598282.735,164.551,37.598,41.016,310.547,3.418
1584598282.739,327.148,53.223,53.711,734.863,40.527
1584598282.743,-76.172,37.109,44.434,-107.910,29.785
1584598282.747,-341.309,17.090,28.809,-749.023,-9.277
1584598282.751,38.086,31.738,35.156,21.973,25.391
1584598282.755,352.051,51.270,49.316,758.301,31.738
1584598282.759,62.500,41.504,47.852,187.988,13.672
1584598282.763,-340.332,16.602,32.227,-715.820,71.777
1584598282.767,-104.004,19.043,26.367,-278.809,90.332
1584598282.770,329.590,40.527,43.457,674.316,34.668
1584598282.774,185.059,42.969,49.316,448.242,43.457
1584598282.778,-291.016,20.020,37.109,-562.500,69.336
1584598282.782,-244.141,12.207,33.203,-536.133,63.965
1584598282.786,246.094,37.109,45.410,497.070,27.832
1584598282.790,288.574,49.805,52.246,648.926,3.906
1584598282.794,-169.434,32.227,40.039,-320.312,17.578
1584598282.798,-312.012,16.113,25.391,-716.309,-12.207
1584598282.802,132.812,31.250,36.133,217.773,-55.664
1584598282.806,342.773,51.758,52.246,749.512,28.320
1584598282.810,-40.039,37.598,45.898,-27.344,73.242
1584598282.813,-351.562,15.137,29.297,-755.371,34.180
1584598282.817,-4.883,25.391,33.203,-75.195,-4.395
1584598282.821,350.586,49.316,49.805,745.117,19.531
1584598282.825,89.844,42.480,47.852,274.902,73.730
1584598282.829,-339.844,13.672,28.809,-690.430,54.688
1584598282.833,-146.484,14.648,24.902,-370.605,-52.734
1584598282.837,303.223,39.551,41.016,631.836,-93.750
1584598282.841,210.449,45.898,48.828,506.836,-45.410
1584598282.845,-258.301,22.949,32.715,-516.113,14.160
1584598282.849,-256.348,13.184,20.996,-600.098,76.172
1584598282.852,229.980,36.621,35.645,429.199,73.242
1584598282.856,304.199,48.340,46.875,691.406,51.270
1584598282.860,-147.949,28.809,41.992,-247.559,40.527
1584598282.864,-331.055,10.742,29.785,-736.816,-2.441
1584598282.868,92.285,27.344,35.645,148.926,16.113
1584598282.872,339.844,46.875,50.781,766.602,27.832
1584598282.876,-6.348,37.598,42.969,65.430,31.250
1584598282.880,-345.703,15.625,24.414,-733.887,46.387
1584598282.884,-34.668,25.391,28.809,-133.789,76.660
1584598282.888,347.656,51.758,45.898,749.023,80.566
1584598282.892,132.324,45.410,48.340,360.352,62.500
1584598282.895,-317.871,15.137,32.227,-646.484,36.621
1584598282.899,-180.176,15.137,28.320,-431.641,28.320
1584598282.903,287.109,42.969,44.922,589.355,19.531
1584598282.907,239.746,47.363,53.223,553.711,-5.859
1584598282.911,-227.539,27.832,39.551,-452.637,31.250
1584598282.915,-280.762,18.555,27.832,-643.066,42.969
1584598282.919,193.848,39.062,40.527,363.281,46.387
1584598282.923,317.383,53.223,52.734,720.703,6.348
1584598282.927,-108.887,36.133,42.969,-167.480,43.457
1584598282.931,-340.332,14.160,25.879,-743.652,45.898
1584598282.935,58.594,25.879,34.180,68.848,-3.906
1584598282.938,346.191,45.898,50.781,765.625,65.430
1584598282.942,30.273,34.668,46.875,147.461,93.750
1584598282.946,-345.703,12.695,29.785,-731.445,71.289
1584598282.950,-76.172,17.090,29.297,-238.281,45.898
1584598282.954,337.402,42.969,45.410,692.871,46.875
1584598282.958,164.551,46.875,53.711,411.621,62.012
1584598282.962,-299.316,17.090,40.527,-601.074,6.348
1584598282.966,-211.426,9.766,25.879,-503.418,-2.930
1584598282.970,265.625,37.109,37.109,539.551,37.598
1584598282.974,264.160,46.875,50.781,621.094,46.875
1584598282.977,-196.777,26.855,41.016,-375.000,19.043
1584598282.981,-298.828,12.207,25.391,-690.430,9.766
1584598282.985,157.227,29.297,36.621,272.949,-8.789
1584598282.989,324.707,45.410,51.758,735.840,14.648
1584598282.993,-75.195,31.250,41.992,-94.727,-8.301
1584598282.997,-350.098,10.742,25.879,-771.484,-35.645
1584598283.001,23.926,26.367,30.762,-23.926,1.465
1584598283.005,343.262,47.852,42.480,753.906,31.738
1584598283.009,49.805,38.574,41.016,215.820,79.102
1584598283.013,-347.168,17.578,26.855,-713.379,78.125
1584598283.017,-121.582,20.508,22.949,-313.965,22.949
1584598283.020,313.477,43.457,37.598,661.133,36.621
1584598283.024,188.965,43.457,44.434,460.449,13.672
1584598283.028,-283.691,20.508,32.227,-558.105,33.691
1584598283.032,-244.141,13.184,26.855,-562.500,39.062
1584598283.036,235.840,36.621,43.457,465.820,-3.906
1584598283.040,271.484,44.922,48.828,638.184,-17.090
1584598283.044,-180.664,25.879,33.203,-323.242,-10.254
1584598283.048,-323.730,14.160,21.973,-722.656,11.719
1584598283.052,120.117,31.738,36.621,202.637,-51.758
1584598283.056,335.938,51.270,52.734,754.395,-20.508
1584598283.060,-28.809,41.992,43.945,-1.953,39.551
1584598283.063,-343.750,19.531,27.832,-752.441,-10.254
1584598283.067,-12.695,26.855,32.227,-94.727,-38.574
1584598283.071,352.051,49.805,47.852,740.723,35.645
1584598283.075,116.699,50.781,51.758,291.992,35.645
1584598283.079,-315.430,25.391,36.621,-666.504,-5.371
1584598283.083,-143.066,20.020,26.855,-384.277,49.805
1584598283.087,312.988,42.480,40.527,607.422,68.359
1584598283.091,228.027,45.410,49.805,532.715,62.012
1584598283.095,-247.070,24.414,37.109,-482.910,38.574
1584598283.099,-260.254,15.137,24.414,-616.211,-7.324
1584598283.102,219.727,35.156,35.645,406.738,-20.020
1584598283.106,318.848,47.852,50.781,700.684,7.812
1584598283.110,-119.629,27.832,42.480,-212.891,7.812
1584598283.114,-322.754,11.230,27.344,-729.004,-4.395
1584598283.118,100.098,33.691,36.621,135.742,41.016
1584598283.122,355.957,52.246,50.293,770.020,27.344
1584598283.126,12.207,38.086,44.922,89.844,-20.508
1584598283.130,-344.238,14.160,27.832,-736.328,1.465
1584598283.134,-46.875,20.020,29.785,-173.828,33.691
1584598283.138,346.191,46.387,46.875,728.516,35.645
1584598283.142,142.578,44.922,49.805,374.023,63.965
1584598283.145,-310.059,15.137,34.180,-641.602,32.715
1584598283.149,-177.734,15.625,30.273,-460.449,-0.488
1584598283.153,294.434,45.898,47.852,583.496,17.578
1584598283.157,250.977,50.293,53.223,601.074,20.996
1584598283.161,-214.355,28.809,39.551,-408.203,44.434
1584598283.165,-277.344,18.555,25.391,-646.973,48.340
1584598283.169,185.059,36.621,36.621,344.727,22.949
1584598283.173,324.219,47.363,52.734,735.352,62.988
1584598283.177,-95.215,30.273,44.922,-126.953,156.250
1584598283.181,-344.238,8.789,30.273,-737.305,117.676
1584598283.185,52.734,25.391,38.086,53.223,43.945
1584598283.188,361.816,48.828,52.734,758.789,41.016
1584598283.192,52.734,38.574,49.805,155.273,48.828
1584598283.196,-339.844,18.555,33.691,-716.797,37.109
1584598283.200,-87.402,25.879,29.297,-243.652,28.809
1584598283.204,329.590,50.781,44.434,699.707,101.074
1584598283.208,171.875,49.316,54.199,442.383,83.984
1584598283.212,-287.598,20.996,37.598,-581.055,2.930
1584598283.216,-217.285,12.695,27.344,-515.137,-11.230
1584598283.220,258.789,36.133,42.969,520.996,45.410
1584598283.224,274.902,47.363,51.270,632.812,111.328
1584598283.227,-183.594,27.832,41.504,-347.656,88.867
1584598283.231,-301.758,15.137,27.832,-682.129,34.668
1584598283.235,146.973,31.250,32.715,259.766,31.738
1584598283.239,339.355,49.805,47.852,731.934,73.730
1584598283.243,-48.340,40.039,45.410,-48.828,79.102
1584598283.247,-348.145,15.625,27.344,-737.793,49.316
1584598283.251,10.742,27.832,28.809,-33.691,2.930
1584598283.255,352.539,51.758,44.434,751.465,-7.812
1584598283.259,83.008,46.875,43.945,244.141,44.434
1584598283.263,-331.055,22.949,30.762,-687.500,56.152
1584598283.267,-123.535,24.414,28.320,-319.824,-10.742
1584598283.270,317.383,48.340,42.969,658.691,-62.988
1584598283.274,202.148,50.293,48.340,492.188,-22.461
1584598283.278,-268.555,22.949,31.738,-535.156,-2.441
1584598283.282,-246.094,16.602,21.484,-587.891,9.277
1584598283.286,236.816,46.387,39.062,446.777,27.832
1584598283.290,292.969,52.734,49.316,673.340,-17.090
1584598283.294,-163.574,26.855,36.621,-275.879,32.227
1584598283.298,-331.055,8.301,22.461,-727.051,84.961
1584598283.302,110.840,28.809,33.691,178.223,21.484
1584598283.306,346.680,53.223,51.270,753.906,51.270
1584598283.310,-8.789,40.527,46.875,22.949,71.289
1584598283.313,-333.984,17.090,28.320,-744.141,3.418
1584598283.317,-22.461,25.879,30.762,-113.281,77.148
1584598283.321,341.797,49.316,49.316,735.352,108.398
1584598283.325,108.398,43.457,46.875,301.758,16.602
1584598283.329,-327.637,17.090,27.832,-683.594,3.906
1584598283.333,-163.574,21.484,28.320,-400.391,55.176
1584598283.337,298.828,47.363,45.898,626.953,82.031
1584598283.341,228.516,48.340,47.852,547.852,68.848
1584598283.345,-244.141,23.926,32.715,-479.004,-12.695
1584598283.349,-269.043,17.090,22.461,-627.930,-23.926
1584598283.352,204.590,38.574,33.203,383.789,-12.695
1584598283.356,312.500,52.246,45.898,694.824,-22.461
1584598283.360,-112.793,35.645,39.062,-202.148,0.000
1584598283.364,-327.637,16.602,24.902,-732.910,-4.395
1584598283.368,83.008,32.227,32.227,102.539,29.297
1584598283.372,353.027,48.828,48.340,756.348,91.309
1584598283.376,24.414,41.016,44.922,104.004,123.047
1584598283.380,-332.520,21.484,28.320,-730.957,67.871
1584598283.384,-53.223,24.902,30.762,-179.199,28.809
1584598283.388,348.633,49.805,49.316,724.609,41.016
1584598283.392,156.250,51.758,48.828,391.602,50.781
1584598283.395,-296.387,24.902,30.273,-616.699,14.648
1584598283.399,-188.965,19.043,25.879,-470.703,-9.766
1584598283.403,276.367,44.434,43.457,566.895,38.086
1584598283.407,252.441,52.734,51.270,597.168,16.602
1584598283.411,-210.449,29.785,38.086,-397.949,23.926
1584598283.415,-288.574,12.695,23.438,-659.668,88.379
1584598283.419,173.828,30.762,34.180,306.152,33.203
1584598283.423,333.496,48.340,48.828,730.957,-18.555
1584598283.427,-73.730,35.156,42.969,-102.051,-6.836
1584598283.431,-330.078,15.625,28.809,-729.492,18.555
1584598283.435,47.852,28.809,33.691,38.086,48.828
1584598283.438,353.516,50.781,46.875,763.184,47.363
1584598283.442,56.152,41.016,42.969,190.918,54.199
1584598283.446,-344.727,17.090,25.879,-712.891,29.297
1584598283.450,-106.445,20.996,23.926,-271.973,-14.648
1584598283.454,330.566,46.387,41.016,688.965,39.062
1584598283.458,187.012,46.875,48.340,444.336,-4.883
1584598283.462,-283.203,18.555,28.809,-577.637,-3.906
1584598283.466,-219.238,13.672,21.484,-533.203,46.875
1584598283.470,253.418,38.086,40.527,504.395,14.160
1584598283.474,278.809,47.852,52.246,642.578,2.441
1584598283.477,-179.688,28.320,44.922,-329.102,-6.348
1584598283.481,-314.453,10.742,30.273,-689.453,74.707
1584598283.485,135.254,25.879,34.668,245.117,74.707
1584598283.489,339.355,44.922,44.434,748.047,17.578
1584598283.493,-33.691,35.645,37.109,-32.715,31.738
1584598283.497,-328.125,15.137,24.414,-741.211,32.715
1584598283.501,15.625,26.855,30.273,-44.922,40.527
1584598283.505,355.469,46.875,44.434,749.512,21.484
1584598283.509,92.285,40.039,45.410,263.672,48.340
1584598283.513,-328.125,16.602,31.738,-684.082,91.797
1584598283.517,-130.371,15.137,27.832,-354.980,44.922
1584598283.520,312.500,35.156,41.016,625.488,-9.277
1584598283.524,212.402,45.898,45.898,491.211,25.879
1584598283.528,-259.277,26.367,31.738,-511.719,41.992
1584598283.532,-258.789,10.254,20.508,-590.820,-3.906
1584598283.536,220.215,34.180,33.691,429.688,56.152
1584598283.540,293.945,46.387,44.434,681.152,79.102
1584598283.544,-145.020,24.902,35.156,-248.535,-32.715
1584598283.548,-323.242,8.789,24.414,-718.750,-41.504
1584598283.552,104.004,25.391,32.227,152.832,64.941
1584598283.556,352.539,46.387,44.434,754.395,76.172
1584598283.560,-4.883,38.086,41.016,54.688,13.184
1584598283.563,-346.191,12.207,22.949,-745.605,3.418
1584598283.567,-29.297,17.578,22.949,-145.508,-2.441
1584598283.571,356.445,46.387,40.527,724.609,35.645
1584598283.575,132.324,43.457,43.945,334.961,35.156
1584598283.579,-316.895,16.602,31.250,-645.996,-5.859
1584598283.583,-174.805,12.695,27.832,-416.992,10.254
1584598283.587,289.551,35.645,41.504,599.609,28.809
1584598283.591,235.352,41.992,45.898,554.688,14.160
1584598283.595,-233.887,21.973,30.273,-463.867,-11.719
1584598283.599,-275.879,12.695,19.531,-637.695,25.879
1584598283.602,196.777,34.180,32.715,365.234,60.059
1584598283.606,317.383,47.852,46.387,708.496,18.555
1584598283.610,-111.328,26.855,35.645,-180.176,25.391
1584598283.614,-333.008,9.277,18.066,-750.000,34.668
1584598283.618,67.383,27.832,24.414,77.637,0.977
1584598283.622,349.121,48.340,41.504,755.859,19.043
1584598283.626,30.762,41.504,41.504,128.418,32.227
1584598283.630,-341.309,17.578,24.902,-729.492,27.832
1584598283.634,-71.289,20.508,23.926,-219.238,0.488
1584598283.638,330.078,43.457,40.039,699.219,-2.930
1584598283.642,156.250,42.969,46.875,388.672,14.648
1584598283.645,-300.293,18.066,27.344,-614.746,-4.395
1584598283.649,-206.543,17.578,17.578,-493.652,58.105
1584598283.653,259.277,41.016,35.645,529.297,37.598
1584598283.657,250.000,46.387,46.875,593.750,-3.906
1584598283.661,-198.242,28.320,35.645,-386.719,-0.488
1584598283.665,-288.574,20.020,26.855,-668.945,-0.488
1584598283.669,153.320,30.273,28.809,285.156,48.340
1584598283.673,289.551,14.160,11.230,689.941,16.113
1584598283.677,-126.953,-20.996,-12.207,-141.113,-7.812
1584598283.681,-400.391,-45.898,-31.738,-790.527,62.988
1584598283.685,-31.250,-34.180,-28.320,-55.664,49.805
1584598283.688,289.062,-11.230,-11.719,693.359,17.090
1584598283.692,3.418,-18.066,-11.230,147.949,-4.883
1584598283.696,-397.461,-41.992,-26.855,-764.160,-44.922
1584598283.700,-166.504,-37.109,-29.297,-360.840,0.488
1584598283.704,265.137,-8.789,-10.254,597.168,22.949
1584598283.708,134.277,-3.418,-0.488,409.668,35.645
1584598283.712,-329.590,-24.414,-12.695,-593.750,37.109
1584598283.716,-280.273,-26.367,-19.043,-583.984,46.387
1584598283.720,199.219,-2.441,-2.441,452.148,70.801
1584598283.724,235.840,7.812,5.859,621.582,49.316
1584598283.727,-209.473,-13.184,-5.859,-336.914,-2.441
1584598283.731,-345.703,-25.391,-15.137,-736.816,18.555
1584598283.735,92.285,-3.418,-2.930,178.711,34.180
1584598283.739,305.176,13.184,12.695,713.379,27.832
1584598283.743,-63.965,-0.977,8.789,-48.828,25.879
1584598283.747,-376.465,-19.531,-6.348,-790.039,56.152
1584598283.751,-43.945,-5.371,-0.977,-122.559,56.152
1584598283.755,308.105,18.555,13.672,712.891,27.344
1584598283.759,67.383,14.160,13.184,254.883,37.109
1584598283.763,-352.051,-7.812,-1.953,-710.938,32.715
1584598283.767,-170.898,-5.371,-6.836,-396.973,53.711
1584598283.770,280.762,18.066,9.277,603.027,83.496
1584598283.774,191.895,20.508,19.531,493.164,62.988
1584598283.778,-277.832,-0.488,7.324,-526.367,44.922
1584598283.782,-282.715,-5.859,-2.441,-636.230,26.855
1584598283.786,190.918,13.672,14.160,382.324,57.617
1584598283.790,275.879,21.484,27.832,646.484,115.723
1584598283.794,-163.574,7.812,19.043,-269.043,61.523
1584598283.798,-355.957,-5.371,6.348,-753.418,19.531
1584598283.802,65.430,11.230,17.578,117.188,16.113
1584598283.806,322.266,33.691,33.691,736.816,18.555
1584598283.810,-13.672,24.414,24.414,47.363,-7.324
1584598283.813,-359.863,0.977,7.812,-760.742,-9.277
1584598283.817,-67.871,7.324,12.207,-177.734,14.160
1584598283.821,313.965,32.227,33.203,705.078,32.715
1584598283.825,113.770,31.738,41.016,340.332,78.125
1584598283.829,-335.449,6.348,24.414,-652.832,7.324
1584598283.833,-205.078,1.953,15.625,-461.914,-2.930
1584598283.837,268.555,30.273,31.738,562.988,60.059
1584598283.841,227.539,41.992,42.480,560.547,22.949
1584598283.845,-239.258,18.555,28.809,-431.641,0.977
1584598283.849,-298.340,10.254,14.648,-653.809,43.457
1584598283.852,167.969,32.715,28.320,322.754,34.180
1584598283.856,305.664,43.945,40.039,698.242,-12.207
1584598283.860,-109.863,26.855,30.762,-156.738,-2.930
1584598283.864,-349.121,7.812,18.066,-742.188,10.254
1584598283.868,52.246,23.926,23.926,49.316,20.020
1584598283.872,344.727,48.340,40.039,756.836,61.035
1584598283.876,33.691,39.551,40.527,165.039,63.965
1584598283.880,-340.820,12.695,21.484,-713.379,11.230
1584598283.884,-81.055,19.043,17.090,-239.258,14.160
1584598283.888,338.867,45.410,35.645,690.430,35.156
1584598283.892,177.734,43.457,41.992,417.969,20.508
1584598283.895,-284.180,22.461,29.297,-590.820,38.574
1584598283.899,-203.613,18.555,23.926,-514.648,1.953
1584598283.903,267.578,42.480,38.574,522.949,33.691
1584598283.907,270.020,49.805,48.340,627.441,86.914
1584598283.911,-190.430,26.367,34.180,-353.027,9.277
1584598283.915,-305.664,11.719,21.973,-677.246,-55.176
1584598283.919,145.996,29.785,35.645,267.578,-55.176
1584598283.923,326.660,47.852,52.246,732.910,-17.578
1584598283.927,-62.012,36.133,44.434,-68.359,43.457
