timestamps,TP9,AF7,AF8,TP10,Right AUX
1584599271.657,37.109,24.414,26.855,53.711,92.773
1584599271.661,50.781,20.996,34.668,112.793,52.246
1584599271.665,19.043,11.719,39.551,48.340,20.508
1584599271.669,8.301,17.090,38.574,-17.090,-15.625
1584599271.673,27.832,31.738,32.227,30.273,-0.977
1584599271.677,33.203,33.691,28.320,89.844,69.824
1584599271.681,7.812,31.738,25.391,28.320,46.387
1584599271.684,-19.043,28.809,25.879,-52.246,1.953
1584599271.688,15.625,33.203,24.902,-16.113,3.418
1584599271.692,55.664,43.457,21.484,95.215,4.395
1584599271.696,23.438,38.574,21.484,72.754,26.855
1584599271.700,-13.672,29.297,21.973,-40.039,97.168
1584599271.704,14.160,28.809,21.484,-37.109,69.336
1584599271.708,63.965,33.691,23.926,92.285,-12.207
1584599271.712,58.105,34.668,24.902,116.699,35.645
1584599271.716,-1.465,30.762,22.949,-7.324,51.758
1584599271.720,-7.324,28.809,20.996,-41.504,32.715
1584599271.724,45.410,34.180,25.391,58.105,15.137
1584599271.727,56.152,36.133,30.273,113.770,25.879
1584599271.731,12.695,29.297,26.367,26.855,48.828
1584599271.735,-10.254,25.391,23.438,-47.363,45.898
1584599271.739,35.156,30.762,27.344,27.344,-2.930
1584599271.743,61.035,35.645,29.785,109.375,-10.742
1584599271.747,18.066,29.785,28.809,50.781,8.301
1584599271.751,-20.020,22.461,25.879,-55.664,20.020
1584599271.755,16.602,28.320,26.367,-25.391,50.781
1584599271.759,57.129,37.598,29.297,90.332,34.180
1584599271.763,32.715,31.250,29.785,79.102,-14.648
1584599271.767,-12.695,22.949,28.809,-30.762,15.625
1584599271.770,3.906,27.344,28.809,-38.574,56.152
1584599271.774,54.199,31.250,28.809,65.918,41.992
1584599271.778,59.082,31.738,27.832,99.609,4.883
1584599271.782,6.836,23.926,23.438,2.441,33.203
1584599271.786,-13.184,21.973,24.414,-51.270,66.895
1584599271.790,40.527,29.785,31.250,49.316,24.902
1584599271.794,56.152,29.785,29.785,121.094,3.906
1584599271.798,9.277,25.391,23.926,40.527,47.363
1584599271.802,-15.625,22.461,23.438,-53.711,57.129
1584599271.806,28.809,23.438,26.855,6.348,18.066
1584599271.809,56.641,27.344,30.762,111.816,0.488
1584599271.813,20.508,24.902,32.227,53.711,26.367
1584599271.817,-16.602,18.555,29.785,-44.434,32.227
1584599271.821,13.672,23.438,30.273,-19.531,44.922
1584599271.825,62.988,30.762,30.762,87.891,37.598
1584599271.829,45.898,29.297,29.297,85.938,23.926
1584599271.833,-7.324,22.461,29.785,-25.391,55.176
1584599271.837,12.695,19.531,35.645,-25.391,57.129
1584599271.841,76.172,28.809,35.156,98.633,32.227
1584599271.845,48.828,37.109,24.414,111.328,-9.766
1584599271.849,-17.090,32.715,19.531,-18.066,-14.160
1584599271.852,-18.555,27.344,21.973,-63.477,30.762
1584599271.856,30.273,35.156,21.973,34.180,78.613
1584599271.860,45.898,41.016,16.602,88.379,50.781
1584599271.864,2.441,31.738,17.090,12.207,-34.180
1584599271.868,-20.996,26.855,22.461,-75.684,1.953
1584599271.872,23.438,29.297,27.832,-19.043,31.738
1584599271.876,56.152,31.738,34.668,90.820,43.945
1584599271.880,23.926,30.762,37.109,65.430,94.727
1584599271.884,-15.137,26.855,33.203,-43.945,73.730
1584599271.888,7.324,27.832,31.738,-27.832,5.371
1584599271.892,54.688,33.691,34.668,87.891,-23.438
1584599271.895,46.875,34.668,33.691,91.309,-24.414
1584599271.899,-5.859,28.809,30.762,-14.648,-2.441
1584599271.903,-4.883,28.320,32.227,-42.969,56.641
1584599271.907,47.852,35.645,34.668,54.199,74.707
1584599271.911,52.246,34.668,34.180,111.328,73.242
1584599271.915,7.324,26.855,30.273,20.996,58.105
1584599271.919,-4.883,26.367,30.762,-70.312,-10.254
1584599271.923,41.504,35.645,32.227,14.160,-51.270
1584599271.927,65.430,40.039,33.203,120.117,32.715
1584599271.931,22.949,32.715,31.738,61.523,53.223
1584599271.934,-8.301,27.344,25.391,-38.574,41.992
1584599271.938,25.879,30.762,26.855,17.578,71.777
1584599271.942,72.754,34.668,30.762,122.070,34.668
1584599271.946,45.410,32.715,28.320,78.613,0.488
1584599271.950,-10.254,27.832,26.855,-27.344,-20.508
1584599271.954,6.348,29.785,32.227,-24.414,20.020
1584599271.958,51.758,36.621,35.645,79.590,44.922
1584599271.962,46.387,33.691,35.156,97.168,-17.090
1584599271.966,-4.395,27.344,35.156,-7.324,-35.645
1584599271.970,-4.395,28.320,36.621,-45.898,-15.137
1584599271.974,47.363,33.691,40.527,57.129,54.688
1584599271.977,50.293,34.180,40.527,125.977,90.332
1584599271.981,6.348,26.855,38.086,38.086,52.734
1584599271.985,-13.672,24.414,33.203,-58.594,13.184
1584599271.989,23.438,28.809,30.762,15.625,56.641
1584599271.993,50.781,31.250,36.621,115.234,90.332
1584599271.997,15.137,29.785,32.715,53.223,52.734
1584599272.001,-14.160,24.414,25.391,-52.246,20.020
1584599272.005,16.602,24.902,29.785,-11.719,24.902
1584599272.009,51.270,31.250,34.180,96.191,38.574
1584599272.013,26.367,31.738,33.691,79.590,52.246
1584599272.017,-23.926,23.926,32.227,-24.902,56.152
1584599272.020,-2.441,23.926,30.762,-31.738,-24.902
1584599272.024,55.176,30.762,33.203,85.938,8.789
1584599272.028,48.828,28.320,33.203,110.352,22.949
1584599272.032,-0.977,22.949,29.785,5.859,1.465
1584599272.036,-3.418,23.438,32.715,-41.992,11.230
1584599272.040,44.434,30.273,35.645,56.152,-4.395
1584599272.044,60.059,31.738,36.621,133.301,30.762
1584599272.048,21.484,26.367,33.203,46.875,-4.883
1584599272.052,-3.906,21.973,32.227,-50.781,-0.488
1584599272.056,33.203,25.879,34.668,10.742,63.477
1584599272.059,60.059,30.762,36.621,123.047,21.973
1584599272.063,40.527,24.902,38.574,81.543,30.762
1584599272.067,3.418,19.531,35.156,-33.203,42.480
1584599272.071,17.578,21.484,36.621,-11.230,21.484
1584599272.075,65.430,28.320,41.992,102.539,35.156
1584599272.079,47.363,27.344,39.062,103.027,64.453
1584599272.083,-0.977,20.996,30.762,-10.254,62.500
1584599272.087,4.395,23.926,32.715,-29.785,24.414
1584599272.091,53.223,30.273,36.133,79.590,48.828
1584599272.095,59.082,29.785,34.668,111.816,81.543
1584599272.099,9.277,23.926,34.180,15.137,47.363
1584599272.102,-6.348,26.367,31.250,-53.223,48.340
1584599272.106,40.039,32.227,32.715,32.715,45.410
1584599272.110,62.012,30.762,37.598,125.977,27.344
1584599272.114,24.902,28.320,38.574,48.828,-3.418
1584599272.118,-7.324,31.738,39.551,-55.176,31.738
1584599272.122,28.320,28.809,44.434,12.207,76.172
1584599272.126,54.688,29.785,43.457,104.980,25.391
1584599272.130,9.766,28.809,42.969,53.223,-20.508
1584599272.134,-29.297,24.414,47.852,-55.176,-3.418
1584599272.138,-8.789,27.832,48.340,-37.598,-26.367
1584599272.142,32.715,34.668,50.293,74.219,19.531
1584599272.145,15.137,33.691,46.875,74.707,10.742
1584599272.149,-42.480,29.297,42.480,-44.434,-17.578
1584599272.153,-45.898,31.250,41.016,-90.332,13.672
1584599272.157,-2.930,37.598,41.504,11.719,72.754
1584599272.161,2.441,36.133,41.016,52.246,94.238
1584599272.165,-53.711,32.227,39.062,-48.828,7.812
1584599272.169,-77.637,31.738,39.551,-121.582,47.852
1584599272.173,-36.133,38.086,38.574,-49.805,71.289
1584599272.177,-26.855,39.551,39.551,44.434,34.668
1584599272.181,-64.453,32.227,38.574,-20.996,22.461
1584599272.184,-92.285,26.367,34.180,-134.277,-13.672
1584599272.188,-57.129,28.809,35.645,-76.172,-36.133
1584599272.192,-17.090,35.645,34.180,33.691,-27.832
1584599272.196,-37.598,35.156,23.926,0.488,-9.766
1584599272.200,-70.801,30.273,22.461,-95.703,10.254
1584599272.204,-41.992,31.738,23.438,-90.332,42.480
1584599272.208,11.230,36.133,27.344,33.203,8.301
1584599272.212,8.301,33.203,27.344,66.895,-37.109
1584599272.216,-29.297,26.855,19.043,-41.504,9.277
1584599272.220,-23.926,23.926,20.020,-62.500,-29.785
1584599272.224,26.855,26.855,23.438,44.434,-38.086
1584599272.227,46.387,30.762,24.414,104.004,18.555
1584599272.231,0.977,25.879,23.438,28.809,48.340
1584599272.235,-5.859,23.438,20.996,-55.176,47.852
1584599272.239,48.340,29.785,21.484,14.160,29.297
1584599272.243,62.500,33.203,24.902,114.746,9.277
1584599272.247,27.344,30.762,27.344,63.965,28.809
1584599272.251,-7.812,27.832,25.391,-41.016,108.398
1584599272.255,24.414,27.344,23.926,0.977,44.434
1584599272.259,69.336,30.762,27.344,110.840,-38.574
1584599272.263,51.758,28.320,24.902,98.633,6.348
1584599272.267,9.277,23.438,22.949,-9.277,63.965
1584599272.270,23.438,22.949,27.344,-22.461,55.664
1584599272.274,68.848,24.902,30.762,96.680,72.754
1584599272.278,68.359,23.438,31.738,138.184,83.496
1584599272.282,13.184,18.066,29.297,31.738,88.379
1584599272.286,11.230,19.531,25.391,-41.016,55.664
1584599272.290,65.918,27.344,24.902,51.270,52.246
1584599272.294,72.754,30.273,26.855,125.488,14.160
1584599272.298,31.738,27.832,25.391,50.781,-24.902
1584599272.302,2.930,23.926,22.461,-36.133,17.578
1584599272.306,39.062,25.879,23.926,33.203,14.648
1584599272.309,71.777,29.785,26.367,139.648,38.086
1584599272.313,40.039,26.855,25.391,83.984,50.781
1584599272.317,2.441,22.461,24.902,-26.367,-15.625
1584599272.321,30.762,24.902,26.855,-6.836,1.953
1584599272.325,71.289,25.879,28.320,105.469,9.766
1584599272.329,52.246,24.414,22.461,96.680,11.719
1584599272.333,2.930,20.508,18.066,-17.090,23.926
1584599272.337,10.742,20.020,20.508,-41.504,60.059
1584599272.341,58.105,25.391,21.973,67.383,65.430
1584599272.345,58.105,29.785,26.367,119.629,16.602
1584599272.349,7.324,24.414,26.367,13.672,15.625
1584599272.352,-4.395,20.996,21.484,-47.363,7.324
1584599272.356,50.781,26.367,22.461,44.922,6.836
1584599272.360,66.406,28.320,24.902,125.977,24.902
1584599272.364,19.043,23.926,25.391,60.059,39.062
1584599272.368,-8.301,19.531,22.949,-40.039,52.734
1584599272.372,24.414,20.508,23.926,12.695,20.020
1584599272.376,54.688,23.926,23.438,109.863,28.809
1584599272.380,25.879,20.020,16.602,69.336,37.598
1584599272.384,-14.648,15.137,16.113,-39.551,8.301
1584599272.388,9.277,22.461,20.020,-31.738,18.066
1584599272.392,52.734,27.832,22.949,86.914,62.012
1584599272.395,40.039,25.391,24.414,109.375,62.500
1584599272.399,-7.812,22.949,23.926,0.000,15.137
1584599272.403,-3.906,24.414,20.996,-53.711,20.020
1584599272.407,48.340,28.320,25.391,59.570,44.922
1584599272.411,52.734,27.344,26.855,119.141,19.043
1584599272.415,5.859,23.438,23.926,31.250,36.133
1584599272.419,-7.812,20.020,24.414,-40.527,34.668
1584599272.423,38.574,23.438,27.344,31.738,8.301
1584599272.427,57.129,24.902,29.785,121.582,4.883
1584599272.431,23.926,20.020,30.762,53.711,17.090
1584599272.434,-12.207,18.555,30.273,-53.223,42.969
1584599272.438,15.137,22.461,29.297,-0.488,10.742
1584599272.442,59.570,29.297,28.809,107.422,25.391
1584599272.446,32.227,26.855,27.344,83.496,50.781
1584599272.450,-13.672,20.508,26.367,-26.367,13.672
1584599272.454,10.254,19.531,27.832,-23.926,3.418
1584599272.458,58.594,23.926,32.227,95.703,66.406
1584599272.462,44.434,24.902,31.738,113.281,95.703
1584599272.466,-5.859,17.090,28.809,7.812,22.461
1584599272.470,-4.395,17.090,30.762,-35.156,4.883
1584599272.474,45.410,24.414,34.180,54.199,5.371
1584599272.477,52.734,26.367,32.715,116.211,10.254
1584599272.481,7.324,21.973,29.785,36.621,35.156
1584599272.485,-10.742,18.066,27.344,-53.711,34.668
1584599272.489,31.250,20.996,28.809,10.254,38.086
1584599272.493,62.500,28.809,29.785,110.840,62.012
1584599272.497,27.344,25.879,28.809,62.012,46.875
1584599272.501,-9.766,20.020,25.879,-41.992,4.883
1584599272.505,17.578,23.926,27.832,-12.207,40.527
1584599272.509,54.688,26.855,33.691,107.910,79.102
1584599272.513,39.062,24.414,30.273,96.680,79.590
1584599272.517,-8.301,17.578,24.414,-28.320,81.055
1584599272.520,10.254,18.555,26.367,-40.039,31.738
1584599272.524,59.570,25.391,29.297,71.777,-11.719
1584599272.528,43.945,26.367,29.297,104.004,-8.789
1584599272.532,-4.883,20.020,26.367,8.789,45.410
1584599272.536,-9.766,17.090,24.902,-56.152,94.238
1584599272.540,42.480,22.949,28.809,35.645,58.594
1584599272.544,56.641,24.414,31.738,114.746,9.766
1584599272.548,9.277,18.555,31.738,30.273,-6.836
1584599272.552,-18.066,16.113,31.250,-60.059,-8.301
1584599272.556,24.414,21.484,34.180,9.277,-30.273
1584599272.559,58.105,26.855,36.133,114.746,6.348
1584599272.563,20.996,22.949,28.809,67.383,27.832
1584599272.567,-21.484,17.578,22.461,-42.969,-6.836
1584599272.571,8.789,21.484,24.414,-25.391,-21.973
1584599272.575,54.688,23.438,27.832,90.820,3.906
1584599272.579,36.621,20.996,28.320,88.867,24.902
1584599272.583,-12.695,19.043,27.832,-25.879,14.648
1584599272.587,3.418,14.648,32.715,-28.320,-12.695
1584599272.591,72.754,15.137,40.039,108.398,22.461
1584599272.595,78.613,24.902,37.598,154.785,26.367
1584599272.599,1.953,25.391,29.785,12.695,-18.555
1584599272.602,-23.438,22.461,23.438,-72.266,3.418
1584599272.606,30.273,33.203,22.461,26.367,58.105
1584599272.610,49.316,37.598,22.461,110.352,47.363
1584599272.614,9.766,30.762,20.508,34.180,-0.488
1584599272.618,-12.695,28.809,17.090,-63.477,-0.977
1584599272.622,30.762,35.645,17.090,-5.859,0.977
1584599272.626,66.895,44.434,17.578,101.562,-17.578
1584599272.630,39.551,47.852,13.184,66.406,-49.316
1584599272.634,0.000,41.504,8.789,-42.480,-22.949
1584599272.638,28.809,44.434,6.836,-25.391,8.789
1584599272.642,78.613,52.246,7.812,92.285,-44.922
1584599272.645,66.895,51.758,6.836,99.609,14.648
1584599272.649,21.484,46.875,0.977,-7.324,57.129
1584599272.653,21.973,49.316,-0.488,-41.504,57.617
1584599272.657,77.637,58.594,2.930,70.312,75.684
1584599272.661,87.891,60.059,-0.977,128.418,36.621
1584599272.665,39.062,56.152,-5.371,18.555,12.695
1584599272.669,24.414,54.688,-4.883,-54.688,46.875
1584599272.673,66.406,62.988,-2.441,32.715,84.473
1584599272.677,97.656,68.848,0.488,128.906,41.992
1584599272.681,67.383,63.477,-0.488,67.871,43.457
1584599272.684,26.855,58.105,-1.953,-41.504,9.766
1584599272.688,57.617,64.453,-0.488,2.930,-6.836
1584599272.692,94.727,70.801,-1.953,118.164,31.738
1584599272.696,66.406,67.871,-7.324,86.914,10.254
1584599272.700,20.020,62.500,-9.277,-29.297,21.973
1584599272.704,38.574,63.477,-2.441,-22.949,-4.883
1584599272.708,91.797,64.941,4.883,101.562,-1.953
1584599272.712,82.031,61.035,4.395,123.535,48.828
1584599272.716,20.508,54.688,1.953,-1.953,92.773
1584599272.720,18.066,54.688,3.906,-49.316,85.449
1584599272.724,65.430,56.152,7.812,75.195,19.531
1584599272.727,74.707,56.641,7.324,139.160,25.879
1584599272.731,29.297,52.246,4.883,27.344,34.180
1584599272.735,6.348,44.922,6.836,-51.270,-7.812
1584599272.739,54.688,46.387,8.789,27.832,1.465
1584599272.743,84.961,50.293,9.277,116.211,62.988
1584599272.747,45.898,46.875,9.277,63.965,76.660
1584599272.751,4.883,40.039,9.277,-52.734,-20.996
1584599272.755,37.598,40.527,9.277,-24.902,-58.105
1584599272.759,75.195,43.457,11.230,93.262,40.039
1584599272.763,43.457,41.992,15.137,75.684,63.965
1584599272.767,0.977,35.156,15.625,-27.344,23.926
1584599272.770,8.789,32.715,18.066,-28.320,1.953
1584599272.774,51.758,38.574,20.508,80.566,9.277
1584599272.778,52.734,39.062,20.508,108.398,-2.930
1584599272.782,8.789,32.715,18.555,1.465,2.441
1584599272.786,0.488,31.250,20.996,-51.758,53.223
1584599272.790,48.828,38.574,22.461,54.199,60.059
1584599272.794,62.500,43.457,23.438,127.930,52.734
1584599272.798,17.578,39.551,25.879,45.410,35.156
1584599272.802,0.488,35.156,21.484,-42.480,45.410
1584599272.806,43.945,41.016,24.902,17.090,39.062
1584599272.809,70.312,45.410,29.785,121.582,29.785
1584599272.813,38.086,41.992,29.785,77.148,42.969
1584599272.817,-2.930,35.156,29.785,-40.527,18.066
1584599272.821,20.996,36.621,30.762,-20.996,-17.578
1584599272.825,60.547,41.504,34.180,94.727,2.930
1584599272.829,46.387,38.086,36.133,91.797,12.695
1584599272.833,-2.441,33.203,29.785,-22.949,35.156
1584599272.837,2.441,33.691,27.832,-42.969,14.648
1584599272.841,56.641,40.039,33.203,73.730,4.395
1584599272.845,58.105,38.574,33.203,117.676,35.156
1584599272.849,5.859,29.785,25.879,9.277,76.660
1584599272.852,-5.859,30.762,21.484,-60.059,69.824
1584599272.856,46.387,35.156,25.879,43.945,54.199
1584599272.860,65.430,34.668,26.367,129.883,10.254
1584599272.864,21.973,30.273,20.020,31.738,-35.645
1584599272.868,-6.348,28.320,20.508,-68.359,-26.855
1584599272.872,26.855,32.715,25.879,6.348,28.320
1584599272.876,60.059,35.156,28.320,124.512,49.805
1584599272.880,32.715,29.785,25.879,73.242,23.438
1584599272.884,-10.742,25.879,22.461,-50.293,38.574
1584599272.888,14.648,28.320,26.367,-29.297,20.996
1584599272.892,60.547,31.738,29.785,93.262,-3.418
1584599272.895,43.457,30.762,26.855,109.375,29.785
1584599272.899,-5.859,25.879,19.043,-7.812,19.043
1584599272.903,-0.488,24.902,18.555,-48.828,-5.371
1584599272.907,50.781,30.273,23.438,57.129,36.621
1584599272.911,52.734,33.203,24.414,104.004,26.367
1584599272.915,3.906,29.297,22.461,8.789,-28.809
1584599272.919,-11.230,24.902,20.020,-64.941,-0.488
1584599272.923,35.156,29.785,23.438,21.973,5.859
1584599272.927,60.059,35.645,27.344,115.723,0.000
1584599272.931,23.438,32.227,24.414,47.363,49.316
1584599272.934,-12.207,25.391,23.926,-55.176,44.922
1584599272.938,18.555,29.297,27.832,-5.371,66.895
1584599272.942,56.641,33.203,27.832,111.328,41.992
1584599272.946,33.691,29.297,26.855,84.961,21.973
1584599272.950,-14.160,23.926,25.879,-35.156,40.039
1584599272.954,9.277,26.855,27.832,-39.551,7.812
1584599272.958,56.152,32.715,34.668,81.543,24.414
1584599272.962,37.598,30.273,35.645,108.398,-10.254
1584599272.966,-17.090,22.949,31.738,-13.184,-21.484
1584599272.970,-18.066,22.949,34.180,-58.105,12.207
1584599272.974,33.203,28.809,37.598,57.129,-16.113
1584599272.977,43.945,28.320,32.227,116.699,27.832
1584599272.981,5.371,21.484,28.809,23.438,64.941
1584599272.985,-11.230,19.531,29.297,-55.664,55.664
1584599272.989,25.879,25.879,29.297,21.973,53.223
1584599272.993,61.523,29.785,33.203,134.277,48.828
1584599272.997,34.668,27.344,30.762,79.590,63.965
1584599273.001,-5.371,29.785,26.855,-46.387,48.828
1584599273.005,17.090,39.551,29.297,-16.113,30.762
1584599273.009,51.758,43.457,27.344,100.098,20.020
1584599273.013,35.645,40.527,24.902,84.473,35.645
1584599273.017,-11.719,33.691,20.020,-39.551,60.547
1584599273.020,-1.465,36.133,18.555,-55.176,22.461
1584599273.024,49.805,44.922,22.461,67.383,13.672
1584599273.028,42.969,44.922,23.438,96.680,30.762
1584599273.032,-3.906,40.527,20.996,-14.160,-6.348
1584599273.036,-7.812,38.574,20.996,-64.453,11.719
1584599273.040,33.203,40.039,25.391,41.016,28.809
1584599273.044,48.340,38.086,26.367,116.211,37.598
1584599273.048,5.371,34.668,20.996,22.949,30.762
1584599273.052,-21.484,33.203,17.090,-67.383,-0.488
1584599273.056,19.531,38.086,17.578,4.883,8.301
1584599273.059,51.270,42.480,20.508,115.723,1.465
1584599273.063,19.043,40.527,20.508,63.477,29.297
1584599273.067,-23.438,37.109,18.555,-59.570,4.883
1584599273.071,0.000,34.668,23.926,-30.273,4.395
1584599273.075,41.504,38.086,28.809,92.773,77.148
1584599273.079,31.250,36.133,30.273,90.820,54.688
1584599273.083,-14.160,27.344,26.855,-28.809,29.297
1584599273.087,-10.742,28.320,24.902,-53.223,55.176
1584599273.091,41.992,35.156,32.715,66.406,49.316
1584599273.095,46.387,38.574,34.180,111.328,52.734
1584599273.099,-4.883,32.715,27.832,-4.883,40.039
1584599273.102,-16.602,27.832,29.297,-74.707,26.367
1584599273.106,33.691,31.250,33.203,32.715,34.180
1584599273.110,53.223,34.180,33.203,122.070,27.344
1584599273.114,15.137,29.297,28.809,41.992,41.504
1584599273.118,-16.113,21.973,25.391,-61.035,36.621
1584599273.122,19.531,27.832,26.855,-1.465,27.832
1584599273.126,53.711,35.156,26.367,115.234,56.641
1584599273.130,21.973,30.273,25.879,75.195,26.855
1584599273.134,-15.137,22.949,27.344,-46.875,20.020
1584599273.138,11.230,29.785,29.785,-31.250,35.645
1584599273.142,58.105,36.621,34.668,106.445,44.434
1584599273.145,47.852,33.203,33.691,117.188,51.270
1584599273.149,6.836,26.855,24.414,-13.672,2.930
1584599273.153,27.832,31.738,20.020,-29.785,53.223
1584599273.157,77.148,34.668,29.785,104.492,94.727
1584599273.161,52.734,22.949,38.574,137.207,32.715
1584599273.165,-8.301,13.184,34.668,6.836,23.926
1584599273.169,-27.344,13.184,34.668,-74.707,21.484
1584599273.173,18.555,17.090,39.551,24.414,54.199
1584599273.177,44.434,13.184,41.504,125.000,56.641
1584599273.181,2.441,6.836,40.527,46.387,14.648
1584599273.184,-36.621,4.883,41.016,-67.383,-9.277
1584599273.188,1.465,2.441,47.363,-10.254,-4.883
1584599273.192,38.086,3.418,51.758,117.676,10.254
1584599273.196,4.883,5.859,47.363,82.031,21.484
1584599273.200,-32.227,1.465,45.410,-51.758,6.836
1584599273.204,-12.695,1.465,47.363,-40.527,-2.930
1584599273.208,32.227,12.207,47.363,91.309,2.441
1584599273.212,28.809,14.160,45.898,104.492,7.324
1584599273.216,-18.066,5.371,46.875,-17.578,55.176
1584599273.220,-20.996,2.930,43.457,-61.035,57.129
1584599273.224,31.250,10.254,40.527,59.082,3.418
1584599273.227,40.527,15.137,41.992,120.117,35.156
1584599273.231,-3.418,9.766,41.016,31.738,57.617
1584599273.235,-25.391,3.906,41.016,-56.152,44.434
1584599273.239,13.184,8.301,41.504,7.812,54.199
1584599273.243,45.410,15.625,41.016,116.699,86.426
1584599273.247,14.160,11.230,38.574,56.641,77.637
1584599273.251,-17.578,5.859,34.180,-43.945,67.871
1584599273.255,12.207,9.277,37.109,-12.207,27.832
1584599273.259,50.293,17.090,42.969,106.445,-22.461
1584599273.263,33.203,16.113,41.504,97.656,41.992
1584599273.267,-15.137,9.277,37.598,-37.109,71.777
1584599273.270,-4.883,12.207,37.598,-46.387,40.527
1584599273.274,35.645,20.508,41.016,87.891,28.809
1584599273.278,41.992,21.973,41.016,116.211,26.367
1584599273.282,-0.977,13.672,32.715,-2.441,47.852
1584599273.286,-18.555,12.695,26.367,-66.406,29.297
1584599273.290,27.832,21.973,30.273,39.551,-1.465
1584599273.294,45.410,24.414,31.738,128.418,19.531
1584599273.298,9.277,19.531,28.809,33.691,43.457
1584599273.302,-13.672,16.113,29.785,-64.453,28.320
1584599273.306,20.020,19.531,32.715,17.090,12.695
1584599273.309,43.457,22.461,34.180,129.883,54.199
1584599273.313,13.672,17.090,31.738,70.801,10.742
1584599273.317,-21.484,11.230,28.320,-52.734,-22.461
1584599273.321,1.953,13.184,29.297,-22.949,36.621
1584599273.325,40.527,18.066,32.227,108.887,8.301
1584599273.329,26.855,20.508,31.250,97.656,11.230
1584599273.333,-12.207,19.043,28.809,-36.621,12.207
1584599273.337,-3.906,22.949,28.320,-52.246,42.480
1584599273.341,40.039,27.832,31.738,82.031,79.102
1584599273.345,43.457,27.832,34.180,134.277,46.875
1584599273.349,0.000,21.973,31.250,12.695,-0.488
1584599273.352,-11.230,20.020,27.344,-69.824,12.695
1584599273.356,33.203,27.832,30.762,42.480,25.879
1584599273.360,49.805,28.809,33.203,134.277,24.414
1584599273.364,10.742,22.949,30.762,52.246,24.414
1584599273.368,-17.578,20.020,27.832,-62.988,-13.184
1584599273.372,15.137,23.438,30.273,-3.906,15.625
1584599273.376,49.316,30.273,36.133,119.141,37.109
1584599273.380,27.832,28.809,35.645,73.730,9.277
1584599273.384,-17.090,19.531,29.785,-54.688,20.020
1584599273.388,-3.906,20.996,28.320,-31.250,11.230
1584599273.392,48.828,28.320,33.203,100.098,13.672
1584599273.395,34.180,25.391,33.203,100.098,26.855
1584599273.399,-20.996,17.090,28.320,-29.785,14.648
1584599273.403,-20.996,16.113,31.250,-55.176,21.973
1584599273.407,25.391,23.926,37.109,70.312,26.367
1584599273.411,35.156,25.391,38.574,118.164,51.758
1584599273.415,-3.906,21.484,36.133,2.441,75.684
1584599273.419,-14.648,20.996,33.203,-75.684,40.039
1584599273.423,27.344,27.832,35.645,24.902,19.043
1584599273.427,48.340,31.250,37.598,124.512,36.133
1584599273.431,12.207,25.879,34.668,47.852,28.320
1584599273.434,-23.926,22.949,33.691,-67.383,83.984
1584599273.438,3.906,25.391,33.691,-11.230,101.074
1584599273.442,40.039,27.344,33.203,119.141,51.758
1584599273.446,21.484,24.414,32.715,84.473,58.105
1584599273.450,-15.137,20.020,30.762,-57.129,15.137
1584599273.454,-3.418,21.973,33.203,-31.250,0.000
1584599273.458,40.527,27.832,36.621,104.492,30.762
1584599273.462,34.180,29.297,33.691,95.215,-13.672
1584599273.466,1.465,23.926,28.809,-33.203,-12.207
1584599273.470,-1.953,22.949,27.832,-74.707,44.922
1584599273.474,23.926,24.414,30.273,51.270,28.320
1584599273.477,40.527,26.367,34.668,119.141,-7.324
1584599273.481,2.441,24.414,33.691,9.766,37.598
1584599273.485,-19.531,20.508,28.809,-83.496,74.707
1584599273.489,17.090,25.391,30.273,12.695,36.621
1584599273.493,38.086,29.297,33.203,116.699,28.320
1584599273.497,5.859,23.438,28.809,36.133,53.223
1584599273.501,-28.320,16.602,24.414,-85.449,69.336
1584599273.505,-4.883,19.531,24.414,-32.227,68.359
1584599273.509,32.227,26.367,29.297,97.656,32.227
1584599273.513,16.113,26.367,33.203,66.406,2.441
1584599273.517,-24.414,20.020,31.250,-48.828,21.973
1584599273.520,-11.230,20.996,30.273,-42.969,43.945
1584599273.524,34.668,30.273,33.691,72.754,21.484
1584599273.528,33.203,31.738,34.180,103.027,15.137
1584599273.532,-9.766,23.926,28.809,-16.602,13.672
1584599273.536,-14.648,20.020,30.762,-74.219,-17.090
1584599273.540,29.785,26.855,36.621,53.223,-28.809
1584599273.544,43.457,32.715,37.598,132.324,10.742
1584599273.548,4.883,26.367,35.156,24.414,10.742
1584599273.552,-17.090,21.973,30.762,-75.195,7.812
1584599273.556,17.090,26.855,33.203,3.906,11.230
1584599273.559,46.875,34.180,35.645,111.816,-5.859
1584599273.563,21.484,31.250,32.715,58.594,43.457
1584599273.567,-12.207,22.461,29.297,-67.383,80.566
1584599273.571,14.160,25.391,31.738,-39.551,41.504
1584599273.575,50.781,30.762,36.621,104.980,17.578
1584599273.579,32.227,23.926,33.203,99.609,24.902
1584599273.583,-5.371,14.160,29.785,-23.926,54.688
1584599273.587,4.883,19.531,29.297,-39.062,40.527
1584599273.591,29.785,33.691,28.320,75.195,79.590
1584599273.595,26.855,28.809,28.809,104.980,56.641
1584599273.599,-11.230,19.043,27.344,-11.719,-14.648
1584599273.602,-36.133,20.996,24.414,-89.355,29.785
1584599273.606,8.789,29.297,29.297,9.277,39.062
1584599273.610,30.273,29.785,36.133,112.305,24.902
1584599273.614,-11.719,21.973,33.691,17.578,-24.414
1584599273.618,-44.434,20.020,27.832,-109.375,1.465
1584599273.622,-13.184,22.949,31.738,-33.203,43.945
1584599273.626,26.367,25.879,35.645,100.098,32.227
1584599273.630,3.906,24.902,33.203,54.199,-24.902
1584599273.634,-34.180,20.508,31.250,-75.684,-21.484
1584599273.638,-14.160,21.973,30.762,-48.828,12.695
1584599273.642,29.297,28.320,31.738,86.426,-27.832
1584599273.645,23.926,28.809,29.785,86.426,28.809
1584599273.649,-15.137,24.902,23.926,-41.504,54.688
1584599273.653,-13.672,28.809,22.949,-65.430,12.207
1584599273.657,32.227,30.762,27.832,58.105,45.898
1584599273.661,38.574,31.738,31.738,110.840,42.969
1584599273.665,0.488,34.668,32.715,0.977,28.809
1584599273.669,-13.184,31.738,30.762,-77.637,36.133
1584599273.673,24.902,35.156,30.762,27.344,-1.953
1584599273.677,42.480,39.062,32.715,124.512,41.992
1584599273.681,7.812,32.715,28.809,44.434,51.758
1584599273.684,-13.672,30.762,26.855,-68.359,25.879
1584599273.688,16.113,34.180,30.273,-11.719,41.992
1584599273.692,47.363,36.621,29.785,112.793,25.879
1584599273.696,26.855,33.203,26.855,76.172,-13.672
1584599273.700,-11.230,24.902,25.391,-51.758,-18.066
1584599273.704,2.930,26.367,27.832,-51.270,-32.227
1584599273.708,43.457,33.691,32.715,77.148,-15.625
1584599273.712,35.156,31.250,31.738,107.910,20.020
1584599273.716,-9.277,24.902,27.832,-19.531,27.832
1584599273.720,-9.766,26.367,28.809,-76.660,41.016
1584599273.724,34.180,31.738,33.203,47.363,62.988
1584599273.727,39.551,28.809,33.203,120.605,44.434
1584599273.731,3.418,20.508,30.273,14.648,21.973
1584599273.735,-11.719,16.602,30.273,-66.406,-8.301
1584599273.739,26.855,21.484,32.715,36.621,8.789
1584599273.743,49.316,27.832,31.738,130.859,41.992
1584599273.747,14.648,21.973,28.320,47.363,34.180
1584599273.751,-11.719,18.066,26.367,-70.312,-1.953
1584599273.755,12.207,26.367,26.367,-20.996,3.418
1584599273.759,43.945,28.809,27.832,111.328,36.133
1584599273.763,28.320,25.879,27.832,92.285,32.227
1584599273.767,-13.184,26.855,21.973,-45.898,47.852
1584599273.770,-0.977,25.879,23.926,-52.246,53.711
1584599273.774,43.457,25.879,30.762,89.355,-23.926
1584599273.778,41.992,27.344,29.297,117.188,-12.695
1584599273.782,-4.883,22.461,27.832,-15.137,57.617
1584599273.786,-12.695,20.020,29.297,-72.266,55.176
1584599273.790,34.668,25.391,29.785,48.828,42.969
1584599273.794,47.852,28.320,31.250,120.117,48.340
1584599273.798,4.883,22.949,30.762,25.879,20.996
1584599273.802,-20.996,18.555,25.879,-62.988,18.555
1584599273.806,11.719,21.973,27.832,9.277,13.184
1584599273.809,46.875,28.809,30.273,130.371,8.301
1584599273.813,23.438,27.344,26.855,70.312,2.441
1584599273.817,-11.719,23.438,25.391,-55.664,21.973
1584599273.821,10.254,24.414,25.879,-18.066,59.082
1584599273.825,51.758,28.320,28.809,108.887,34.668
1584599273.829,38.086,28.320,28.809,105.469,20.996
1584599273.833,-5.859,20.020,26.367,-30.762,42.480
1584599273.837,-4.883,17.578,27.344,-61.035,43.457
1584599273.841,33.691,21.973,30.273,71.289,23.926
1584599273.845,39.551,24.414,31.738,131.348,-3.418
1584599273.849,0.488,19.531,30.273,8.789,-29.785
1584599273.852,-12.695,18.066,30.273,-71.289,-21.484
1584599273.856,37.598,26.367,32.227,38.574,15.625
1584599273.860,50.781,29.297,31.250,119.629,34.668
1584599273.864,4.883,21.973,27.344,32.227,29.785
1584599273.868,-20.996,20.020,24.902,-74.219,-27.832
1584599273.872,9.766,23.926,30.273,-4.395,-61.035
1584599273.876,36.133,24.414,32.715,109.375,-31.738
1584599273.880,10.254,20.508,25.391,64.453,5.371
1584599273.884,-30.273,14.160,20.996,-63.965,4.395
1584599273.888,-16.113,18.555,22.949,-57.129,1.465
1584599273.892,30.762,27.344,25.391,83.008,-5.371
1584599273.895,22.461,26.367,20.996,91.309,-23.926
1584599273.899,-21.484,18.066,20.508,-28.320,0.000
1584599273.903,-18.555,17.578,24.902,-62.012,43.945
1584599273.907,33.691,25.391,25.391,57.617,22.461
1584599273.911,48.340,28.320,21.484,110.840,16.602
1584599273.915,12.695,25.879,18.555,10.254,61.523
1584599273.919,12.695,17.578,29.297,-37.109,68.848
1584599273.923,35.156,14.648,37.109,42.480,39.062
1584599273.927,25.391,19.531,37.109,112.305,27.344
1584599273.931,0.977,14.160,40.527,34.668,42.969
1584599273.934,-28.809,8.789,39.551,-81.055,31.250
1584599273.938,-10.742,13.184,43.457,-22.461,14.648
1584599273.942,29.297,15.137,49.316,101.074,29.297
1584599273.946,11.230,7.812,49.316,70.312,36.621
1584599273.950,-37.109,-0.977,47.852,-58.105,50.781
1584599273.954,-28.809,-1.953,47.852,-52.246,67.383
1584599273.958,12.695,0.000,50.293,83.984,61.523
1584599273.962,6.348,-3.418,52.734,102.539,0.977
1584599273.966,-36.133,-9.766,51.270,-27.344,-52.246
1584599273.970,-49.805,-11.719,53.223,-79.590,20.020
1584599273.974,-4.395,-7.324,60.059,57.129,78.125
1584599273.977,13.184,-6.348,62.988,134.277,57.129
1584599273.981,-30.762,-10.254,56.641,6.348,17.578
1584599273.985,-50.293,-11.719,54.199,-70.801,23.438
1584599273.989,-6.836,-7.324,61.035,28.809,55.664
1584599273.993,17.578,-1.953,62.988,121.094,5.859
1584599273.997,-6.836,-4.395,57.129,60.547,-27.344
1584599274.001,-19.043,-7.324,53.711,-45.410,2.441
1584599274.005,7.812,-2.441,55.664,6.836,47.852
1584599274.009,30.762,2.930,52.734,121.094,38.086
1584599274.013,10.742,0.488,48.828,97.656,10.742
1584599274.017,-36.133,-3.906,44.922,-27.832,-8.789
1584599274.020,-14.648,0.488,47.852,-34.668,48.828
1584599274.024,32.227,9.766,51.758,94.238,38.086
1584599274.028,18.555,9.766,49.316,118.652,-33.691
1584599274.032,-26.855,0.488,42.480,-9.766,-2.441
1584599274.036,-28.320,0.000,39.062,-71.289,17.090
1584599274.040,18.066,7.812,43.945,48.828,34.180
1584599274.044,33.691,7.812,41.992,130.859,68.848
1584599274.048,-4.883,4.883,35.156,39.062,24.414
1584599274.052,-25.879,3.418,35.156,-55.176,10.254
1584599274.056,17.090,6.836,38.574,17.578,35.645
1584599274.059,49.316,12.695,39.062,124.023,6.836
1584599274.063,19.531,12.207,38.574,79.102,-14.160
1584599274.067,-17.090,6.348,35.645,-34.180,6.836
1584599274.071,4.395,8.789,35.645,-13.184,42.969
1584599274.075,53.223,13.672,37.598,114.746,65.430
1584599274.079,35.645,11.719,34.668,104.980,85.938
1584599274.083,-15.137,8.789,33.691,-24.902,64.453
1584599274.087,-5.371,15.137,35.645,-42.969,62.988
1584599274.091,41.016,23.438,40.527,83.496,42.480
1584599274.095,44.922,22.461,43.457,130.859,17.578
1584599274.099,-2.930,16.602,35.645,15.625,57.129
1584599274.102,-9.277,14.160,30.273,-28.809,54.199
1584599274.106,40.039,19.531,34.668,65.430,16.113
1584599274.110,54.688,21.973,35.156,124.512,22.461
1584599274.114,14.160,17.578,33.203,50.781,-7.812
1584599274.118,-11.719,14.648,29.297,-55.176,-18.555
1584599274.122,24.902,20.020,27.832,3.906,37.598
1584599274.126,57.617,24.414,31.250,113.770,9.766
1584599274.130,26.855,22.461,30.762,79.102,36.621
1584599274.134,-17.090,15.625,26.855,-29.785,79.102
1584599274.138,10.742,17.090,28.320,-23.438,-3.418
1584599274.142,58.594,27.344,33.203,97.168,0.977
1584599274.145,44.434,30.273,36.133,112.305,28.320
1584599274.149,-0.488,23.438,33.203,-5.859,10.742
1584599274.153,0.000,24.414,32.227,-41.504,34.668
1584599274.157,48.828,32.227,36.621,65.918,63.965
1584599274.161,70.801,31.250,37.109,118.652,8.301
1584599274.165,18.555,24.902,33.691,20.996,56.641
1584599274.169,-6.836,21.973,29.785,-61.035,65.430
1584599274.173,43.457,28.809,32.715,31.250,-25.391
1584599274.177,62.500,31.738,37.109,134.277,30.762
1584599274.181,23.438,23.438,36.133,62.500,37.598
1584599274.184,-8.789,20.508,31.738,-46.387,53.223
1584599274.188,23.926,25.879,32.227,1.953,76.660
1584599274.192,59.082,28.320,36.133,119.629,35.156
1584599274.196,38.086,27.344,30.762,84.961,-3.418
1584599274.200,-7.812,23.438,24.414,-39.062,-25.879
1584599274.204,8.301,21.973,25.391,-40.039,-24.414
1584599274.208,58.594,25.391,27.832,86.914,-1.465
1584599274.212,41.504,23.438,26.855,108.398,40.039
1584599274.216,-8.301,16.113,22.461,-18.066,10.254
1584599274.220,-9.277,17.090,21.973,-51.270,-20.508
1584599274.224,37.598,24.414,25.879,58.105,12.695
1584599274.227,51.270,24.902,26.855,112.793,40.039
1584599274.231,2.930,19.531,26.367,32.227,25.391
1584599274.235,-18.555,19.043,27.832,-60.059,45.898
1584599274.239,24.902,24.414,30.273,26.367,53.711
1584599274.243,54.199,28.320,28.809,127.441,40.039
1584599274.247,25.391,24.414,25.879,50.293,23.438
1584599274.251,-20.508,20.996,27.344,-54.688,4.395
1584599274.255,8.301,24.902,29.297,-17.090,-13.184
1584599274.259,53.711,27.832,28.809,97.656,-1.465
1584599274.263,31.738,25.879,28.320,81.055,16.602
1584599274.267,-17.090,20.508,26.367,-24.414,21.973
1584599274.270,-4.395,20.020,24.414,-45.410,61.035
1584599274.274,44.922,26.367,28.809,68.848,39.062
1584599274.278,39.062,28.320,29.785,111.816,0.000
1584599274.282,-10.254,22.949,24.414,-4.883,10.742
1584599274.286,-8.789,21.484,22.949,-47.363,3.418
1584599274.290,42.480,30.273,26.367,54.199,8.789
1584599274.294,57.617,33.203,27.832,105.469,45.898
1584599274.298,13.184,26.367,27.344,29.785,49.316
1584599274.302,-24.414,20.020,27.344,-59.570,20.508
1584599274.306,18.066,25.391,32.715,5.859,-24.902
1584599274.309,49.805,32.715,35.156,110.352,-15.137
1584599274.313,14.648,27.832,30.762,71.777,60.059
1584599274.317,-25.879,20.996,25.879,-41.016,56.152
1584599274.321,1.953,23.438,25.391,-30.273,12.207
1584599274.325,47.363,29.297,29.297,88.867,27.832
1584599274.329,31.250,27.832,29.297,101.562,36.621
1584599274.333,-16.113,21.973,27.344,-18.555,29.297
1584599274.337,-1.465,24.414,27.832,-55.176,62.988
1584599274.341,56.152,32.715,30.273,73.730,50.293
1584599274.345,51.758,32.227,30.273,124.512,19.531
1584599274.349,0.977,26.367,25.391,2.930,-2.930
1584599274.352,-8.301,27.344,22.461,-61.523,45.898
1584599274.356,34.668,32.715,26.367,37.598,85.449
1584599274.360,49.316,33.691,27.344,102.539,77.148
1584599274.364,3.418,25.879,23.926,25.879,77.148
1584599274.368,-26.855,22.949,26.855,-62.012,56.152
1584599274.372,27.832,28.320,32.227,-5.371,8.789
1584599274.376,63.965,31.250,29.297,95.703,-32.715
1584599274.380,22.949,27.344,25.391,56.641,0.000
1584599274.384,-14.160,21.973,22.949,-55.176,13.672
1584599274.388,5.371,22.949,25.879,-41.504,-14.160
1584599274.392,50.781,27.344,25.391,78.125,15.137
1584599274.395,35.156,24.902,22.949,90.820,19.531
1584599274.399,-21.484,17.578,25.879,-24.414,8.789
1584599274.403,-18.066,20.020,27.344,-58.105,43.945
1584599274.407,37.109,24.414,28.809,54.199,100.098
1584599274.411,40.527,22.949,26.855,102.539,65.430
1584599274.415,-10.254,19.043,25.391,1.953,16.602
1584599274.419,-17.090,19.043,24.414,-78.125,63.965
1584599274.423,31.250,22.949,29.297,19.531,57.129
1584599274.427,52.246,24.902,34.180,110.840,14.160
1584599274.431,11.719,22.949,29.785,41.016,20.020
1584599274.434,-17.578,20.020,24.902,-59.082,29.297
1584599274.438,8.301,22.461,28.320,-10.254,42.480
1584599274.442,40.039,26.367,35.645,106.445,41.016
1584599274.446,24.902,24.414,35.156,71.289,24.414
1584599274.450,-27.832,17.578,28.809,-41.992,41.016
1584599274.454,-5.371,15.137,28.809,-39.062,104.492
1584599274.458,47.852,23.438,34.180,82.520,61.035
1584599274.462,29.297,24.414,35.645,111.816,13.672
1584599274.466,-17.578,15.625,37.598,7.812,40.527
1584599274.470,-9.766,18.066,35.645,-43.945,52.734
1584599274.474,44.434,28.320,30.762,53.223,68.359
1584599274.477,52.246,30.273,30.762,125.977,40.039
1584599274.481,12.695,18.555,33.691,42.969,-2.930
1584599274.485,19.043,16.113,37.109,-14.648,-21.484
1584599274.489,66.895,33.203,31.738,62.988,22.949
1584599274.493,62.500,38.574,24.414,116.699,-14.160
1584599274.497,17.090,32.227,21.484,56.152,-26.367
1584599274.501,-13.184,32.715,16.602,-42.480,57.617
1584599274.505,24.902,39.062,15.137,-22.949,10.254
1584599274.509,71.777,42.480,18.066,102.539,16.113
1584599274.513,51.270,39.062,14.648,90.332,28.320
1584599274.517,5.859,38.574,7.324,-33.691,5.371
1584599274.520,18.066,43.945,7.324,-41.992,-36.621
1584599274.524,68.848,52.246,8.789,61.523,-14.160
1584599274.528,56.152,54.199,8.301,85.938,57.617
1584599274.532,2.930,48.828,4.395,-6.836,29.785
1584599274.536,-4.395,47.852,2.441,-54.688,26.367
1584599274.540,44.434,57.129,7.812,37.598,26.367
1584599274.544,62.012,57.617,7.812,106.934,20.508
1584599274.548,14.648,52.734,2.441,19.531,50.293
1584599274.552,-8.789,52.734,-0.488,-61.523,88.379
1584599274.556,35.645,58.594,-0.488,-3.418,56.152
1584599274.559,71.289,60.059,0.000,96.680,-15.137
1584599274.563,38.574,56.152,-1.953,53.223,-37.598
1584599274.567,-6.836,51.758,-5.371,-61.523,2.930
1584599274.571,23.438,54.199,-9.277,-34.668,11.230
1584599274.575,84.473,60.547,-4.395,83.496,-7.324
1584599274.579,71.777,58.105,0.977,86.426,-5.371
1584599274.583,8.789,49.805,-1.465,-28.320,35.156
1584599274.587,17.578,45.898,-1.465,-68.359,6.348
1584599274.591,69.824,50.293,5.859,41.992,3.906
1584599274.595,70.312,53.223,7.812,96.191,46.875
1584599274.599,23.926,44.434,3.418,-1.465,52.734
1584599274.602,14.648,41.504,4.883,-61.035,63.965
1584599274.606,57.617,47.852,8.789,25.879,-16.113
1584599274.610,75.684,49.316,12.207,104.492,11.719
1584599274.614,36.133,43.457,12.207,33.691,59.570
1584599274.618,0.488,39.551,10.254,-65.430,16.602
1584599274.622,33.691,39.551,15.625,-1.953,31.250
1584599274.626,71.289,41.504,20.020,111.328,21.973
1584599274.630,48.340,39.551,17.578,71.777,8.301
1584599274.634,6.348,32.715,17.090,-45.410,43.945
1584599274.638,24.414,36.133,18.555,-33.691,58.105
1584599274.642,68.848,43.945,20.996,85.449,-2.930
1584599274.645,57.617,40.039,22.949,107.910,13.184
1584599274.649,3.418,32.227,21.973,-16.602,24.902
1584599274.653,13.672,35.156,22.949,-66.895,-9.766
1584599274.657,60.059,40.039,24.902,60.059,-25.879
1584599274.661,53.711,36.133,25.879,118.652,19.043
1584599274.665,11.230,29.297,24.902,14.160,55.176
1584599274.669,-5.859,27.832,25.879,-68.359,27.832
1584599274.673,40.527,33.691,29.297,25.879,45.898
1584599274.677,64.941,37.109,28.809,123.047,46.387
1584599274.681,22.461,31.250,25.391,48.340,40.039
1584599274.684,-7.812,28.809,23.926,-78.125,32.715
1584599274.688,28.320,32.715,24.414,-27.344,13.672
1584599274.692,63.965,36.621,25.879,108.887,21.973
1584599274.696,46.387,34.180,25.391,80.566,29.297
1584599274.700,-0.977,31.738,22.949,-39.551,12.207
1584599274.704,23.438,32.715,24.414,-34.668,20.508
1584599274.708,75.684,35.156,30.762,89.844,14.648
1584599274.712,54.199,37.109,31.738,112.793,-29.785
1584599274.716,10.742,31.738,27.832,0.977,13.184
1584599274.720,5.371,28.320,29.297,-45.410,49.805
1584599274.724,51.758,33.203,31.738,59.570,35.645
1584599274.727,61.035,37.109,28.809,125.488,40.527
1584599274.731,11.719,32.715,26.855,19.043,28.320
1584599274.735,-2.930,29.785,26.367,-70.312,25.879
1584599274.739,40.039,33.203,27.832,17.090,62.988
1584599274.743,62.988,38.086,28.809,115.234,95.215
1584599274.747,26.855,32.227,29.297,47.852,55.664
1584599274.751,2.441,25.391,27.832,-62.988,30.762
1584599274.755,29.297,28.320,27.832,-25.391,14.648
1584599274.759,62.500,33.691,27.832,110.840,-28.809
1584599274.763,56.641,33.203,27.832,111.816,19.043
1584599274.767,3.418,21.973,30.762,-28.320,65.430
1584599274.770,-5.371,19.531,31.250,-49.805,15.137
1584599274.774,34.668,28.320,32.715,74.219,-9.766
1584599274.778,37.109,24.902,35.645,101.074,42.969
1584599274.782,-5.859,17.578,28.809,-16.113,29.785
1584599274.786,-13.184,19.043,24.902,-77.148,0.000
1584599274.790,39.062,28.320,30.762,57.129,35.645
1584599274.794,54.688,30.273,34.180,143.066,21.484
1584599274.798,17.578,24.414,31.738,40.527,4.883
1584599274.802,-2.441,25.391,31.250,-57.129,20.508
1584599274.806,22.461,28.809,34.180,9.277,18.555
1584599274.809,50.781,27.832,34.668,125.977,49.805
1584599274.813,22.461,24.414,31.250,76.660,68.848
1584599274.817,-18.066,20.508,27.832,-48.340,70.312
1584599274.821,9.766,26.367,27.344,-27.344,98.145
1584599274.825,58.105,33.203,32.715,108.887,70.312
1584599274.829,38.086,29.297,32.227,100.586,52.246
1584599274.833,-6.348,24.414,29.297,-20.508,58.105
1584599274.837,5.859,28.320,30.762,-38.574,40.039
1584599274.841,56.152,34.180,32.715,80.078,24.902
1584599274.845,55.664,33.691,33.691,140.137,24.414
1584599274.849,7.324,31.250,31.738,18.066,-4.883
1584599274.852,-0.977,29.785,31.738,-64.941,5.859
1584599274.856,44.922,34.668,35.156,42.969,22.461
1584599274.860,63.477,36.621,35.645,127.930,29.785
1584599274.864,26.367,31.250,34.668,57.129,33.203
1584599274.868,-0.488,28.320,32.715,-49.805,4.883
1584599274.872,39.062,33.203,31.250,-1.465,48.340
1584599274.876,62.012,38.086,33.691,113.281,53.223
1584599274.880,30.273,36.133,32.227,87.402,55.664
1584599274.884,-7.324,31.250,27.832,-38.086,62.500
1584599274.888,9.766,32.715,28.809,-42.480,36.133
1584599274.892,53.223,36.133,32.227,98.633,-4.883
1584599274.895,42.969,34.668,33.203,108.887,20.508
1584599274.899,-8.301,29.297,28.320,-20.020,33.203
1584599274.903,-9.766,29.297,26.367,-50.293,5.371
1584599274.907,42.480,34.180,31.738,60.059,7.812
1584599274.911,47.852,34.668,28.320,134.766,34.180
1584599274.915,6.836,25.879,24.902,25.391,70.312
1584599274.919,-13.672,17.578,26.367,-84.961,82.520
1584599274.923,21.973,20.020,26.855,18.555,66.895
1584599274.927,41.504,22.461,27.344,125.488,11.230
1584599274.931,0.488,17.578,26.855,36.133,-18.555
1584599274.934,-29.785,11.719,25.391,-77.148,0.000
1584599274.938,2.930,15.137,31.738,-9.277,-1.465
1584599274.942,62.500,23.926,36.133,134.277,29.297
1584599274.946,44.922,26.367,30.762,106.445,72.266
1584599274.950,-19.043,22.461,26.367,-42.969,56.152
1584599274.954,-6.836,23.438,25.391,-57.617,-3.418
1584599274.958,49.805,33.691,25.391,81.543,43.457
1584599274.962,37.598,33.691,18.555,96.680,73.730
1584599274.966,-9.766,28.320,12.695,-40.039,26.367
1584599274.970,-8.789,36.133,7.812,-68.359,21.484
1584599274.974,34.180,43.945,9.766,52.246,5.859
1584599274.977,43.945,44.922,13.672,106.934,25.879
1584599274.981,-3.906,43.457,8.789,-0.977,32.715
1584599274.985,-20.020,40.527,7.812,-87.402,30.273
1584599274.989,34.180,43.945,12.695,19.043,47.363
1584599274.993,62.988,46.387,17.090,110.352,-9.277
1584599274.997,20.020,41.992,18.066,40.039,13.672
1584599275.001,-18.066,37.109,17.090,-71.777,25.391
1584599275.005,13.184,37.598,17.578,-23.438,-5.371
1584599275.009,61.035,39.551,20.020,104.492,26.367
1584599275.013,41.992,38.086,21.973,91.797,48.828
1584599275.017,-2.930,32.715,21.484,-38.574,49.316
1584599275.020,9.277,32.715,20.996,-54.688,29.297
1584599275.024,49.805,39.551,23.438,79.590,14.648
1584599275.028,40.039,36.133,25.391,110.352,46.875
1584599275.032,-5.859,28.809,23.438,-14.160,-21.973
1584599275.036,-6.348,30.273,21.484,-62.988,-30.762
1584599275.040,39.551,34.668,26.367,55.176,-28.320
1584599275.044,52.246,40.039,26.855,119.141,0.000
1584599275.048,15.625,39.551,20.508,20.508,26.855
1584599275.052,-10.742,34.180,17.090,-78.125,-4.883
1584599275.056,26.855,38.574,20.996,1.465,25.879
1584599275.059,57.617,41.504,27.832,127.441,29.297
1584599275.063,20.996,35.156,26.367,67.383,47.363
1584599275.067,-17.578,27.832,22.461,-69.824,31.250
1584599275.071,10.254,29.297,27.832,-34.180,38.086
1584599275.075,49.805,36.133,33.691,109.375,92.773
1584599275.079,37.109,31.738,34.668,103.516,42.969
1584599275.083,-2.441,25.391,30.273,-31.250,-21.484
1584599275.087,-4.883,26.855,28.320,-58.594,1.953
1584599275.091,36.621,32.227,29.297,62.500,35.645
1584599275.095,41.992,32.715,30.273,113.281,40.527
1584599275.099,-1.465,26.855,26.367,-3.418,37.598
1584599275.102,-12.207,27.832,24.414,-75.195,9.766
1584599275.106,32.227,34.668,30.273,30.273,36.133
1584599275.110,47.852,31.738,31.250,137.207,39.062
1584599275.114,4.883,21.973,25.391,39.551,21.973
1584599275.118,-25.879,19.531,25.879,-89.355,62.012
1584599275.122,12.207,27.832,26.855,-7.324,43.945
1584599275.126,47.852,30.273,25.391,119.141,18.066
1584599275.130,19.531,24.414,26.367,73.242,-36.133
1584599275.134,-16.113,23.926,26.855,-58.105,-40.527
1584599275.138,4.883,25.391,28.809,-33.203,52.734
1584599275.142,50.293,29.785,31.738,108.887,53.223
1584599275.145,38.574,28.320,30.273,98.633,1.953
1584599275.149,-11.719,20.996,28.320,-37.598,56.152
1584599275.153,3.418,22.949,30.273,-60.059,45.898
1584599275.157,48.828,28.320,32.715,60.059,10.254
1584599275.161,44.922,29.785,34.180,124.023,53.223
1584599275.165,6.836,22.461,30.273,11.719,20.020
1584599275.169,-13.184,16.602,28.809,-75.195,-15.137
1584599275.173,27.344,27.832,32.715,28.809,44.922
1584599275.177,51.758,34.668,35.645,135.254,84.961
1584599275.181,11.719,29.785,34.668,50.293,66.406
1584599275.184,-19.043,21.973,35.156,-59.082,62.012
1584599275.188,18.066,24.414,35.156,4.883,-20.020
1584599275.192,56.641,31.250,32.227,125.977,-38.086
1584599275.196,29.785,29.297,31.250,86.426,47.852
1584599275.200,-12.695,24.902,29.297,-48.828,28.320
1584599275.204,4.395,27.832,31.250,-44.922,-8.789
1584599275.208,42.480,32.715,36.133,95.703,40.039
1584599275.212,40.527,32.227,38.574,129.883,10.742
1584599275.216,-2.930,28.809,34.668,-6.836,-12.695
1584599275.220,-5.859,28.809,31.738,-58.594,39.551
1584599275.224,41.016,35.156,33.691,66.406,10.254
1584599275.227,55.176,35.645,32.715,129.883,-12.207
1584599275.231,16.113,29.785,28.809,20.996,48.340
1584599275.235,-15.625,26.855,28.320,-56.152,46.875
1584599275.239,23.926,30.762,29.297,23.926,-22.461
1584599275.243,48.340,36.133,29.785,118.164,-1.465
1584599275.247,15.625,28.809,27.832,52.246,29.297
1584599275.251,-12.695,23.438,27.832,-55.176,16.602
1584599275.255,13.672,30.273,31.738,-11.719,25.879
1584599275.259,52.734,32.715,32.227,109.375,23.926
1584599275.263,35.645,29.297,30.762,100.586,7.324
1584599275.267,-11.230,25.391,28.809,-37.109,7.812
1584599275.270,4.395,25.879,33.203,-31.250,28.809
1584599275.274,52.734,29.297,37.109,112.793,41.504
1584599275.278,44.922,27.344,33.691,116.699,38.574
1584599275.282,8.301,21.484,30.273,-16.602,11.719
1584599275.286,0.488,21.484,29.785,-63.965,32.715
1584599275.290,36.621,24.902,33.691,58.594,49.805
1584599275.294,54.199,27.344,35.645,132.812,52.734
1584599275.298,11.230,23.926,33.691,41.504,51.270
1584599275.302,-15.625,19.531,30.762,-65.918,30.273
1584599275.306,18.066,24.414,31.738,7.812,17.578
1584599275.309,47.852,28.809,33.203,129.395,-41.504
1584599275.313,24.414,25.879,31.738,71.289,-12.695
1584599275.317,-9.277,20.996,27.832,-50.293,48.340
1584599275.321,14.160,23.438,29.297,-22.949,70.312
1584599275.325,56.641,33.691,34.180,119.141,63.477
1584599275.329,40.527,33.203,33.203,116.211,65.430
1584599275.333,-4.395,27.344,28.809,-28.320,43.945
1584599275.337,2.441,27.344,28.320,-52.734,27.832
1584599275.341,49.805,31.738,32.227,79.102,22.949
1584599275.345,59.570,35.156,34.180,130.859,-22.949
1584599275.349,4.883,30.273,31.250,18.066,25.879
1584599275.352,-7.324,29.785,31.250,-59.082,76.172
1584599275.356,40.527,34.180,36.133,56.152,93.750
1584599275.360,55.176,36.621,38.574,148.438,14.648
1584599275.364,29.785,33.203,33.691,48.828,-46.875
1584599275.368,7.812,29.297,27.832,-54.199,-6.836
1584599275.372,37.598,36.621,30.273,10.254,7.324
1584599275.376,73.242,35.645,41.016,137.695,-0.488
1584599275.380,34.668,26.855,45.410,90.820,11.719
1584599275.384,-25.879,20.020,38.574,-54.688,39.062
1584599275.388,0.977,23.438,39.062,-37.109,49.805
1584599275.392,57.617,31.250,44.922,121.094,90.332
1584599275.395,46.387,29.785,42.969,130.859,61.523
1584599275.399,4.883,22.461,37.598,-21.973,44.922
1584599275.403,4.883,20.996,37.109,-49.805,38.574
1584599275.407,38.574,27.832,40.039,86.914,17.578
1584599275.411,41.992,26.367,39.062,133.789,53.223
1584599275.415,-0.488,20.508,32.715,24.414,27.832
1584599275.419,-16.602,21.973,29.785,-61.035,-5.859
1584599275.423,26.855,26.855,32.227,26.367,-1.953
1584599275.427,47.852,25.391,32.227,134.766,-8.301
1584599275.431,15.137,20.508,34.180,54.199,4.883
1584599275.434,-16.113,19.043,37.109,-63.477,-0.488
1584599275.438,13.672,23.438,40.527,2.930,38.086
1584599275.442,55.664,27.344,37.598,124.023,39.062
1584599275.446,29.785,24.414,32.227,88.379,-10.254
1584599275.450,-19.043,15.625,27.832,-50.781,-19.043
1584599275.454,-0.977,17.578,27.832,-47.852,-4.395
1584599275.458,44.922,24.902,31.738,94.238,0.977
1584599275.462,39.551,27.832,30.762,114.746,33.203
1584599275.466,6.348,21.484,26.367,-20.996,23.438
1584599275.470,0.000,20.508,27.344,-58.105,26.855
1584599275.474,34.180,27.344,29.785,60.547,58.105
1584599275.477,50.781,27.344,31.738,138.672,15.625
1584599275.481,5.371,26.367,30.273,36.621,12.207
1584599275.485,-13.672,21.973,26.367,-75.684,63.477
1584599275.489,29.785,20.508,27.344,14.648,64.453
1584599275.493,52.246,28.320,26.855,118.164,41.016
1584599275.497,17.090,25.391,25.879,63.965,7.324
1584599275.501,-15.137,20.508,25.879,-57.129,-39.062
1584599275.505,15.625,26.855,28.320,-21.973,-11.719
1584599275.509,55.176,33.691,31.738,115.234,49.316
1584599275.513,37.598,31.250,30.762,98.633,35.645
1584599275.517,-5.859,22.461,27.344,-27.344,-1.465
1584599275.520,-0.488,19.531,27.344,-41.992,-33.203
1584599275.524,44.922,28.320,26.855,83.496,6.348
1584599275.528,50.293,30.273,25.879,119.629,54.199
1584599275.532,2.930,19.531,24.902,-9.277,32.715
1584599275.536,-14.648,16.602,27.832,-74.707,7.324
1584599275.540,23.438,21.973,33.691,41.504,9.277
1584599275.544,34.668,22.949,31.250,116.699,53.711
1584599275.548,1.465,18.555,27.832,10.254,-6.836
1584599275.552,-22.949,15.625,27.832,-84.473,-20.020
1584599275.556,15.137,20.508,30.762,-1.465,25.879
1584599275.559,48.828,23.438,31.738,117.188,31.250
1584599275.563,13.184,18.555,27.832,60.059,65.430
1584599275.567,-22.461,14.648,23.438,-68.359,81.055
1584599275.571,-2.930,16.602,23.926,-28.809,73.242
1584599275.575,36.133,20.020,27.344,101.074,65.918
1584599275.579,31.250,18.555,27.344,90.820,74.219
1584599275.583,-5.371,17.578,27.344,-41.504,86.426
1584599275.587,1.953,20.020,27.344,-67.383,90.332
1584599275.591,46.387,25.391,30.273,74.219,65.430
1584599275.595,42.969,26.367,30.273,122.559,15.625
1584599275.599,-4.883,19.531,24.414,-1.465,17.090
1584599275.602,-13.672,15.625,23.926,-68.359,18.066
1584599275.606,26.367,20.508,30.273,52.734,2.930
1584599275.610,57.617,26.855,34.180,143.555,50.293
1584599275.614,21.973,24.902,29.785,31.250,37.109
1584599275.618,-21.484,19.531,24.902,-85.449,11.719
1584599275.622,15.137,24.902,27.344,-10.254,48.340
1584599275.626,55.664,34.180,30.762,113.770,47.852
1584599275.630,32.227,32.715,29.297,69.824,33.691
1584599275.634,0.488,24.902,26.367,-41.016,29.785
1584599275.638,20.996,25.879,26.367,-25.879,-14.160
1584599275.642,55.664,31.738,31.738,97.656,18.066
1584599275.645,40.039,28.809,33.691,114.258,48.828
1584599275.649,-4.883,21.484,30.762,-23.926,61.523
1584599275.653,-2.441,19.531,31.738,-51.270,33.203
1584599275.657,40.039,25.879,36.621,79.590,26.367
1584599275.661,48.828,27.832,38.574,123.047,70.312
1584599275.665,6.348,21.973,33.203,9.277,26.367
1584599275.669,-11.719,20.020,28.809,-81.055,19.531
1584599275.673,27.344,28.320,31.250,32.715,59.082
1584599275.677,53.711,33.203,32.227,145.996,33.203
1584599275.681,21.484,24.414,28.809,50.781,20.508
1584599275.684,-11.719,19.531,25.391,-65.430,48.828
1584599275.688,21.484,23.438,30.273,-8.301,17.578
1584599275.692,57.617,28.320,32.227,117.676,8.301
1584599275.696,34.180,26.367,30.762,85.449,44.434
1584599275.700,-4.395,17.578,29.785,-50.293,32.227
1584599275.704,3.906,17.090,33.691,-41.504,21.484
1584599275.708,37.598,23.438,38.086,92.773,32.715
1584599275.712,36.621,23.926,31.250,115.234,20.508
1584599275.716,-6.348,17.578,28.809,-18.555,26.855
1584599275.720,-11.719,17.090,32.715,-75.684,50.293
1584599275.724,37.109,20.996,35.645,50.293,19.531
1584599275.727,46.875,21.973,35.645,129.395,24.902
1584599275.731,1.953,19.043,29.297,19.531,31.738
1584599275.735,-17.578,15.625,27.344,-67.871,30.273
1584599275.739,21.484,20.508,30.762,22.949,0.000
1584599275.743,46.387,23.438,30.762,113.770,-4.395
1584599275.747,14.160,18.066,29.297,57.129,30.273
1584599275.751,-22.949,13.184,27.832,-65.918,71.289
1584599275.755,4.883,19.043,26.367,-31.250,68.359
1584599275.759,43.945,24.414,27.344,93.262,-1.465
1584599275.763,27.344,22.949,26.367,80.078,54.199
1584599275.767,-17.090,18.066,24.414,-48.828,83.984
1584599275.770,-10.254,20.020,23.438,-54.688,61.523
1584599275.774,49.805,27.832,21.484,73.730,91.309
1584599275.778,44.434,27.344,21.484,107.422,48.340
1584599275.782,-9.766,22.461,19.531,-7.812,47.363
1584599275.786,-11.230,20.508,18.555,-68.848,0.000
1584599275.790,33.691,25.391,25.391,41.504,-51.270
1584599275.794,49.316,27.832,29.785,123.535,-10.742
1584599275.798,7.324,21.484,24.902,26.367,-56.152
1584599275.802,-18.555,14.160,22.949,-76.660,-7.812
1584599275.806,12.695,18.555,27.344,1.465,78.613
1584599275.809,42.480,24.414,28.809,124.512,38.574
1584599275.813,18.555,20.996,23.926,78.125,10.254
1584599275.817,-16.602,17.090,20.020,-59.570,8.789
1584599275.821,8.789,21.484,23.926,-37.109,2.930
1584599275.825,47.363,29.297,28.809,104.980,26.855
1584599275.829,38.574,25.391,29.297,97.656,-2.441
1584599275.833,-9.766,17.578,28.320,-26.367,34.668
1584599275.837,-14.648,21.484,26.855,-51.270,36.133
1584599275.841,39.551,29.785,27.344,63.477,3.418
1584599275.845,43.457,26.855,28.320,117.188,29.297
1584599275.849,2.441,20.996,27.344,2.441,1.953
1584599275.852,-8.301,21.484,26.855,-71.777,30.762
1584599275.856,32.715,27.832,25.879,35.645,66.406
1584599275.860,59.570,30.762,26.367,130.859,65.918
1584599275.864,18.555,21.973,24.414,36.133,32.715
1584599275.868,-14.160,20.508,22.461,-71.289,4.883
1584599275.872,20.996,26.855,24.902,-7.324,-41.504
1584599275.876,55.176,28.809,24.414,116.211,-51.270
1584599275.880,35.156,25.879,21.973,86.914,-9.766
1584599275.884,-3.418,23.438,19.043,-46.875,2.441
1584599275.888,5.371,26.855,19.531,-44.922,-8.301
1584599275.892,33.203,32.227,22.461,83.496,-20.020
1584599275.895,27.344,29.785,19.531,104.980,10.742
1584599275.899,-14.648,23.438,15.625,-22.949,47.852
1584599275.903,-11.719,24.414,14.648,-77.637,14.648
1584599275.907,39.062,25.879,18.555,51.758,-6.836
1584599275.911,46.387,26.855,20.996,115.723,7.324
1584599275.915,6.836,24.414,20.996,8.301,35.645
1584599275.919,-7.812,21.484,22.461,-70.801,-3.418
1584599275.923,30.273,27.832,26.367,25.391,20.508
1584599275.927,51.270,30.762,29.785,133.301,63.477
1584599275.931,27.832,24.902,25.879,54.688,39.551
1584599275.934,-6.348,20.020,22.461,-64.941,51.758
1584599275.938,16.113,25.879,24.902,-7.812,12.207
1584599275.942,60.059,30.273,29.297,121.582,8.789
1584599275.946,36.621,27.832,26.367,98.145,66.406
1584599275.950,-5.371,25.391,19.531,-43.457,40.039
1584599275.954,10.742,26.367,19.531,-48.340,44.922
1584599275.958,54.688,34.180,23.926,97.656,56.152
1584599275.962,47.852,33.203,25.879,124.512,28.809
1584599275.966,5.859,25.391,21.973,-1.465,23.926
1584599275.970,3.906,24.414,22.461,-50.781,-13.184
1584599275.974,53.711,30.762,27.832,67.383,-18.555
1584599275.977,65.918,37.109,32.227,139.648,-27.832
1584599275.981,19.531,34.668,25.879,32.227,29.785
1584599275.985,0.000,31.250,22.461,-56.152,85.449
1584599275.989,37.109,31.738,28.320,36.133,75.684
1584599275.993,61.035,34.668,28.809,137.695,51.270
1584599275.997,29.297,31.250,23.926,76.660,21.484
1584599276.001,-8.789,23.438,20.996,-52.246,3.906
1584599276.005,17.090,30.762,22.949,-18.555,27.832
1584599276.009,57.617,35.156,24.902,115.723,52.246
1584599276.013,33.203,28.320,26.367,101.074,58.105
1584599276.017,-15.625,22.461,23.438,-39.551,73.730
1584599276.020,-1.953,23.438,20.508,-64.453,60.547
1584599276.024,42.480,27.832,23.438,88.379,17.090
1584599276.028,39.551,29.785,25.391,124.023,26.367
1584599276.032,-1.465,26.367,22.461,-18.555,46.387
1584599276.036,-9.277,23.926,19.531,-70.801,19.043
1584599276.040,37.109,27.832,21.973,41.016,-19.531
1584599276.044,51.270,27.344,22.461,127.930,-7.324
1584599276.048,9.277,25.391,19.043,30.273,33.203
1584599276.052,-15.137,23.926,19.043,-86.426,-0.977
1584599276.056,24.902,23.926,23.438,-4.883,-32.227
1584599276.059,47.852,26.367,28.320,123.047,2.441
1584599276.063,14.160,23.438,28.809,83.008,-37.598
1584599276.067,-15.625,20.508,25.391,-58.105,-33.203
1584599276.071,10.254,25.391,26.855,-38.086,36.133
1584599276.075,53.223,33.691,31.250,106.934,23.926
1584599276.079,40.527,34.180,31.738,109.863,35.156
1584599276.083,-7.812,24.414,26.367,-21.484,43.457
1584599276.087,-6.348,26.367,25.879,-62.988,12.695
1584599276.091,41.504,31.738,27.832,61.035,18.555
1584599276.095,38.574,32.227,23.926,106.934,11.719
1584599276.099,-8.301,29.785,26.367,-3.906,4.883
1584599276.102,-16.602,30.273,31.738,-75.684,52.734
1584599276.106,30.273,41.992,32.227,14.160,60.547
1584599276.110,37.598,43.457,31.250,104.980,49.316
1584599276.114,4.395,37.109,28.809,28.809,35.156
1584599276.118,-15.625,35.156,27.344,-80.078,50.293
1584599276.122,1.465,36.621,34.668,-19.043,28.809
1584599276.126,18.555,41.016,35.156,95.215,-24.902
1584599276.130,-13.184,39.062,32.715,35.156,-55.664
1584599276.134,-50.293,38.574,31.738,-94.238,8.789
1584599276.138,-35.645,41.992,25.391,-83.984,57.129
1584599276.142,-5.371,41.016,27.832,58.105,27.344
1584599276.145,-23.438,41.504,28.320,59.570,62.988
1584599276.149,-73.242,39.551,22.949,-101.562,41.016
1584599276.153,-77.637,38.086,22.461,-136.719,0.000
1584599276.157,-35.645,46.387,26.367,-6.348,52.734
1584599276.161,-36.621,45.898,26.367,44.434,32.227
1584599276.165,-91.797,35.645,19.531,-77.637,6.836
1584599276.169,-107.910,33.691,18.066,-163.574,37.598
1584599276.173,-62.988,38.086,22.949,-58.105,72.754
1584599276.177,-46.387,39.551,22.461,33.203,57.617
1584599276.181,-69.824,37.598,19.043,-52.734,-3.418
1584599276.184,-95.703,32.227,21.484,-160.156,-23.926
1584599276.188,-72.754,28.809,26.855,-99.609,13.184
1584599276.192,-28.809,32.227,28.809,40.039,27.832
1584599276.196,-46.387,30.762,24.902,12.695,34.668
1584599276.200,-84.473,23.438,21.973,-125.977,9.277
1584599276.204,-58.594,23.438,29.297,-99.609,8.301
1584599276.208,-11.719,24.902,33.691,56.641,20.508
1584599276.212,-18.066,22.949,32.227,65.918,-6.836
1584599276.216,-50.781,20.020,28.809,-60.547,1.953
1584599276.220,-42.480,15.625,30.762,-98.145,40.527
1584599276.224,12.207,14.648,33.203,41.504,35.156
1584599276.227,28.320,15.137,34.668,119.629,11.719
1584599276.231,-10.254,13.184,34.180,7.324,40.039
1584599276.235,-24.414,11.719,29.785,-81.055,55.664
1584599276.239,22.949,17.578,29.785,5.859,42.969
1584599276.243,57.617,25.879,30.273,125.977,76.660
1584599276.247,27.344,22.461,27.344,67.383,75.195
1584599276.251,-6.836,15.137,25.879,-50.293,20.996
1584599276.255,25.391,19.043,30.762,2.441,50.293
1584599276.259,73.730,25.879,33.691,130.859,58.594
1584599276.263,56.641,26.367,29.785,114.746,57.617
1584599276.267,16.113,20.508,24.414,-22.949,8.789
1584599276.270,30.762,20.508,21.973,-29.297,10.254
1584599276.274,74.219,24.414,24.902,111.816,81.055
1584599276.278,77.148,26.367,25.391,150.879,75.195
1584599276.282,43.457,17.090,21.484,39.062,51.270
1584599276.286,28.809,13.184,25.391,-32.227,-15.625
1584599276.290,63.965,24.902,30.273,80.078,23.926
1584599276.294,83.984,24.902,29.785,169.922,79.590
1584599276.298,42.480,16.602,24.902,59.082,29.297
1584599276.302,18.066,16.113,22.949,-44.922,54.199
1584599276.306,57.129,21.484,29.297,43.945,81.055
1584599276.309,99.609,26.367,31.250,161.133,27.832
1584599276.313,65.918,20.996,25.879,100.098,61.523
1584599276.317,10.742,12.695,22.461,-21.484,59.570
1584599276.321,36.133,21.973,22.949,1.465,-27.344
1584599276.325,78.613,30.273,28.320,136.230,-37.109
1584599276.329,64.941,24.414,29.297,130.859,60.059
1584599276.333,21.484,19.043,25.391,-17.578,120.605
1584599276.337,22.949,20.996,27.344,-33.691,23.438
1584599276.341,66.895,25.879,31.250,108.887,14.648
1584599276.345,69.824,24.414,34.668,152.832,82.520
1584599276.349,31.250,24.414,31.738,28.809,61.523
1584599276.352,24.414,24.902,27.832,-43.457,56.641
1584599276.356,62.500,27.832,33.203,69.336,57.617
1584599276.360,74.707,30.273,34.668,170.410,57.129
1584599276.364,40.527,22.461,30.762,76.660,20.996
1584599276.368,22.949,20.020,27.832,-55.176,5.859
1584599276.372,46.387,25.879,29.297,16.113,40.039
1584599276.376,74.707,29.297,31.738,147.949,22.949
1584599276.380,54.199,29.297,29.297,100.098,32.715
1584599276.384,16.113,22.949,25.879,-30.762,57.617
1584599276.388,28.320,24.414,26.855,-6.836,32.227
1584599276.392,68.848,30.762,35.645,132.324,-32.715
1584599276.395,62.012,30.273,37.109,137.207,-5.859
1584599276.399,17.578,24.902,32.227,-0.488,13.672
1584599276.403,22.949,26.367,32.715,-32.227,-4.395
1584599276.407,63.965,34.180,35.645,97.168,-25.879
1584599276.411,66.895,34.180,36.133,141.113,-30.273
1584599276.415,23.438,25.879,31.250,16.113,22.949
1584599276.419,1.953,21.484,30.273,-70.312,5.371
1584599276.423,40.039,29.785,36.133,39.551,41.016
1584599276.427,65.918,34.668,38.574,149.902,24.414
1584599276.431,33.203,26.367,34.180,65.918,21.973
1584599276.434,-5.371,20.996,30.273,-51.270,66.895
1584599276.438,23.926,25.879,32.715,7.812,9.277
1584599276.442,63.965,31.250,36.133,141.602,-4.395
1584599276.446,38.086,28.320,35.645,95.215,17.578
1584599276.450,9.766,25.391,31.738,-45.410,35.156
1584599276.454,26.367,28.320,29.297,-33.691,21.484
1584599276.458,54.688,34.668,31.250,100.098,55.176
1584599276.462,48.828,29.297,33.203,123.535,44.434
1584599276.466,3.906,21.973,30.762,-16.602,-8.789
1584599276.470,-1.953,23.438,29.785,-64.941,27.344
1584599276.474,42.969,28.320,32.715,75.195,52.734
1584599276.477,57.129,29.297,34.180,151.367,43.457
1584599276.481,15.137,23.926,29.785,27.344,50.781
1584599276.485,-2.930,22.461,29.785,-64.941,32.715
1584599276.489,38.086,26.367,34.180,32.715,29.785
1584599276.493,63.477,27.344,36.133,144.531,18.555
1584599276.497,30.762,25.391,35.156,75.684,49.805
1584599276.501,-9.277,21.973,31.250,-40.527,36.133
1584599276.505,13.672,28.809,28.809,1.953,10.254
1584599276.509,60.059,35.645,31.738,114.746,46.387
1584599276.513,44.434,34.668,34.180,96.680,28.320
1584599276.517,1.953,29.297,31.738,-29.785,15.137
1584599276.520,8.789,27.344,33.691,-28.320,23.926
1584599276.524,50.293,32.227,36.133,112.305,39.551
1584599276.528,48.828,33.691,34.180,135.254,81.543
1584599276.532,7.324,25.879,33.691,17.090,70.801
1584599276.536,-0.977,24.414,29.785,-54.688,27.832
1584599276.540,42.480,35.156,21.973,42.480,41.016
1584599276.544,79.590,39.062,20.508,149.414,24.902
1584599276.548,45.410,23.926,31.738,69.824,25.391
1584599276.552,-17.578,13.672,33.691,-71.289,50.293
1584599276.556,-4.395,17.578,29.785,-3.418,34.668
1584599276.559,28.809,19.531,34.668,123.535,27.832
1584599276.563,-10.254,13.672,36.133,42.480,32.227
1584599276.567,-60.059,5.371,35.645,-90.332,57.129
1584599276.571,-30.273,11.230,40.527,-69.824,34.180
1584599276.575,-8.789,16.602,45.898,61.035,2.441
1584599276.579,-43.945,8.301,47.852,52.246,-12.695
1584599276.583,-85.938,-1.953,47.363,-90.332,33.691
1584599276.587,-89.844,-1.465,48.340,-116.699,112.305
1584599276.591,-46.875,-1.465,52.734,23.438,29.297
1584599276.595,-58.594,-4.395,55.664,50.293,-22.461
1584599276.599,-116.211,-6.836,55.176,-98.633,22.949
1584599276.602,-126.465,-14.160,60.059,-157.715,15.137
1584599276.606,-99.609,-15.625,66.895,-53.223,26.855
1584599276.610,-86.914,-15.137,69.336,23.926,26.367
1584599276.614,-118.164,-20.996,72.754,-64.453,4.883
1584599276.618,-164.062,-29.297,74.707,-184.082,13.184
1584599276.622,-126.953,-25.391,80.078,-107.910,21.484
1584599276.626,-94.238,-19.531,86.426,20.996,-20.508
1584599276.630,-139.160,-26.855,83.496,-47.852,5.859
1584599276.634,-177.246,-34.180,81.055,-181.152,46.387
1584599276.638,-146.973,-32.227,83.984,-146.484,34.180
1584599276.642,-95.215,-27.832,88.379,5.371,-30.762
1584599276.645,-103.516,-29.297,87.891,11.230,-13.184
1584599276.649,-141.113,-33.691,79.590,-133.789,38.086
1584599276.653,-129.883,-28.320,76.660,-155.273,1.953
1584599276.657,-70.801,-19.531,78.125,-9.277,77.637
1584599276.661,-52.734,-18.066,75.195,58.105,78.125
1584599276.665,-92.773,-21.484,67.871,-50.781,21.973
1584599276.669,-100.098,-24.414,61.523,-120.117,-0.977
1584599276.673,-44.434,-15.625,62.988,-9.277,2.930
1584599276.677,-6.348,-10.254,62.988,99.609,22.461
1584599276.681,-24.902,-16.113,56.152,31.250,-25.879
1584599276.684,-51.758,-14.648,47.852,-68.848,28.320
1584599276.688,-19.531,-5.371,42.969,-12.207,60.547
1584599276.692,19.531,0.488,42.480,107.910,34.180
1584599276.696,5.371,2.930,41.992,83.496,62.988
1584599276.700,-26.855,-0.977,41.016,-41.016,26.367
1584599276.704,-11.230,-1.465,41.016,-35.156,21.973
1584599276.708,45.898,12.695,43.945,124.023,60.059
1584599276.712,43.945,16.113,40.527,143.066,37.109
1584599276.716,-4.883,6.348,30.273,-6.348,51.270
1584599276.720,-4.883,7.324,28.320,-42.480,73.730
1584599276.724,45.898,20.020,30.762,92.285,22.949
1584599276.727,68.848,22.461,31.738,172.363,23.926
1584599276.731,35.156,14.648,26.855,51.758,75.195
1584599276.735,11.719,13.184,22.949,-30.273,49.316
1584599276.739,48.340,19.043,26.367,68.359,29.785
1584599276.743,80.078,21.973,28.809,162.109,56.641
1584599276.747,51.758,18.066,24.414,93.262,36.133
1584599276.751,13.184,14.648,22.949,-30.762,4.883
1584599276.755,39.551,20.508,26.855,23.438,-4.883
1584599276.759,83.496,28.320,29.297,155.273,-9.766
1584599276.763,69.824,25.391,29.785,134.766,-10.742
1584599276.767,23.926,19.531,26.367,3.418,31.738
1584599276.770,33.203,22.949,26.367,-9.277,48.828
1584599276.774,79.590,27.832,31.250,125.488,29.297
1584599276.778,92.285,25.391,26.855,167.969,33.203
1584599276.782,42.969,20.508,21.484,41.016,-25.879
1584599276.786,21.973,19.531,21.484,-35.156,-14.160
1584599276.790,72.266,24.902,23.438,83.984,-10.742
1584599276.794,85.449,25.391,25.879,162.598,-46.387
1584599276.798,44.434,23.438,24.902,58.105,-8.789
1584599276.802,19.531,20.508,19.043,-38.086,52.734
1584599276.806,54.688,22.949,18.555,45.410,73.730
1584599276.809,85.449,29.297,21.973,150.879,60.547
1584599276.813,54.199,27.344,20.508,97.656,78.613
1584599276.817,16.602,20.508,20.508,-25.391,25.391
1584599276.821,39.062,23.926,22.461,2.441,49.805
1584599276.825,77.637,32.227,22.949,134.277,59.082
1584599276.829,66.406,30.762,19.043,121.094,35.645
1584599276.833,25.391,23.926,15.625,-7.812,69.824
1584599276.837,30.762,21.973,18.555,-14.648,7.812
1584599276.841,73.730,26.855,25.391,107.422,26.855
1584599276.845,78.613,30.273,25.391,137.207,36.621
1584599276.849,34.668,23.926,21.973,33.691,-36.133
1584599276.852,18.066,22.949,22.949,-27.832,-7.812
1584599276.856,59.570,29.297,26.367,73.242,4.883
1584599276.860,77.637,30.762,30.273,151.855,-22.461
1584599276.864,36.621,27.344,28.809,70.801,-22.949
1584599276.868,15.137,26.855,25.391,-33.691,-5.859
1584599276.872,58.594,32.715,28.320,35.645,21.484
1584599276.876,77.148,34.180,29.785,156.738,42.969
1584599276.880,52.246,32.227,24.902,104.492,20.508
1584599276.884,11.719,26.855,18.555,-38.574,21.484
1584599276.888,18.066,28.320,21.484,-32.715,44.922
1584599276.892,62.988,34.180,27.832,112.305,31.738
1584599276.895,52.734,28.809,25.879,137.207,-4.883
1584599276.899,2.441,23.926,24.902,-9.277,24.902
1584599276.903,4.395,25.391,28.809,-49.316,53.223
1584599276.907,52.734,30.762,30.273,92.285,41.504
1584599276.911,67.871,34.180,27.344,136.230,34.180
1584599276.915,15.137,27.344,23.438,16.602,63.965
1584599276.919,-7.812,21.973,23.438,-66.895,39.062
1584599276.923,41.992,28.809,26.367,39.062,-2.930
1584599276.927,60.547,28.809,25.879,142.578,-3.906
1584599276.931,26.367,23.926,27.832,51.758,26.367
1584599276.934,-5.859,23.926,27.832,-58.105,33.691
1584599276.938,21.973,25.391,24.902,1.953,72.754
1584599276.942,61.035,29.785,26.855,115.234,83.496
1584599276.946,38.574,28.809,27.832,95.703,44.434
1584599276.950,-3.906,23.438,28.320,-19.531,-10.742
1584599276.954,9.766,24.414,30.762,-34.668,35.645
1584599276.958,52.734,28.809,32.227,92.285,71.289
1584599276.962,47.363,26.855,31.738,114.746,43.945
1584599276.966,0.488,23.438,26.367,-1.465,55.176
1584599276.970,-4.395,24.902,24.902,-49.805,27.344
1584599276.974,48.828,30.273,28.809,52.246,37.109
1584599276.977,57.617,32.715,33.691,133.789,71.777
1584599276.981,18.066,28.809,35.645,32.227,12.695
1584599276.985,-3.418,21.973,36.133,-61.035,-16.602
1584599276.989,23.926,21.484,36.621,20.508,-7.324
1584599276.993,54.199,27.832,35.156,129.395,2.441
1584599276.997,27.344,26.367,34.180,72.754,7.324
1584599277.001,-12.695,21.484,29.785,-56.641,56.641
1584599277.005,10.742,26.367,25.879,-22.461,89.355
1584599277.009,53.223,32.227,28.809,125.000,101.074
1584599277.013,37.109,30.273,29.297,113.770,23.926
1584599277.017,-8.789,20.996,25.391,-33.203,0.488
1584599277.020,3.418,21.484,27.344,-39.551,74.219
1584599277.024,43.457,25.879,29.785,83.008,48.340
1584599277.028,39.551,24.902,29.297,112.305,9.766
1584599277.032,-4.883,21.484,24.414,3.418,23.438
1584599277.036,-3.418,22.461,22.461,-64.453,33.691
1584599277.040,45.410,31.738,24.902,43.457,16.113
1584599277.044,58.594,32.227,25.879,135.742,90.820
1584599277.048,20.020,23.438,22.949,33.691,83.496
1584599277.052,-13.184,18.066,20.508,-61.523,-2.930
1584599277.056,26.367,20.996,23.926,14.648,-38.086
1584599277.059,65.430,26.855,26.855,128.418,-14.160
1584599277.063,33.691,24.902,24.414,66.895,37.598
1584599277.067,-13.672,20.020,25.391,-38.574,-5.859
1584599277.071,8.301,21.973,30.762,0.977,18.555
1584599277.075,53.223,25.879,30.762,100.586,78.125
1584599277.079,43.945,25.879,29.785,93.750,61.035
1584599277.083,-1.953,23.438,25.391,-21.484,52.734
1584599277.087,16.602,26.855,26.367,-32.227,52.246
1584599277.091,60.547,30.273,30.762,85.449,23.438
1584599277.095,38.574,25.391,28.809,116.211,5.859
1584599277.099,-16.602,17.578,27.344,2.930,37.109
1584599277.102,-27.344,15.625,26.367,-71.289,18.066
1584599277.106,17.090,24.902,26.855,13.672,26.855
1584599277.110,37.109,27.832,28.809,89.355,55.664
1584599277.114,3.906,21.484,25.391,25.879,49.316
1584599277.118,-24.902,18.066,21.973,-67.871,59.082
1584599277.122,13.184,20.020,24.414,-12.207,37.109
1584599277.126,50.293,22.461,29.785,108.398,7.324
1584599277.130,23.438,22.461,31.738,78.125,22.949
1584599277.134,-17.578,17.578,24.902,-46.875,56.152
1584599277.138,7.324,19.043,26.367,-26.367,22.461
1584599277.142,55.664,23.926,33.691,100.586,7.324
1584599277.145,42.480,22.949,32.227,99.609,-9.277
1584599277.149,-11.230,18.555,25.391,-16.113,-33.691
1584599277.153,-15.137,19.043,26.367,-55.664,12.207
1584599277.157,49.316,26.367,30.762,53.223,48.340
1584599277.161,53.223,25.879,33.203,121.094,50.781
1584599277.165,-4.395,20.508,33.203,12.695,42.969
1584599277.169,-18.066,19.531,27.344,-82.031,19.531
1584599277.173,27.832,25.391,28.809,12.695,8.301
1584599277.177,51.758,31.250,30.273,115.234,34.668
1584599277.181,25.391,26.367,27.344,60.547,48.828
1584599277.184,-13.672,20.996,29.297,-44.434,41.992
1584599277.188,4.395,23.926,30.273,-17.090,28.320
1584599277.192,57.617,23.926,30.273,110.352,17.090
1584599277.196,34.180,20.020,29.297,94.238,-23.438
1584599277.200,-16.113,16.113,24.902,-49.316,-20.508
1584599277.204,1.465,19.043,25.879,-50.293,57.129
1584599277.208,50.781,23.926,29.297,101.074,62.988
1584599277.212,43.945,21.973,26.855,110.840,8.301
1584599277.216,-5.859,20.020,24.414,-28.320,-10.742
1584599277.220,-0.488,20.020,26.367,-71.289,-24.414
1584599277.224,37.109,23.926,29.297,43.945,-8.301
1584599277.227,42.969,27.832,30.273,120.605,15.625
1584599277.231,4.883,24.414,28.809,32.227,38.086
1584599277.235,-20.996,20.020,27.344,-67.871,-1.953
1584599277.239,22.461,20.508,27.832,-2.441,-26.367
1584599277.243,51.758,23.438,28.809,117.188,1.465
1584599277.247,17.090,21.973,28.809,66.895,-40.039
1584599277.251,-18.066,16.602,27.344,-59.570,-18.555
1584599277.255,13.184,20.508,28.809,-23.438,39.551
1584599277.259,55.176,25.391,33.203,97.168,31.738
1584599277.263,28.320,23.438,34.668,83.008,23.438
1584599277.267,-11.719,17.090,32.715,-37.109,42.969
1584599277.270,0.977,16.602,31.250,-51.270,69.824
1584599277.274,35.645,20.996,32.715,68.848,65.918
1584599277.278,38.574,19.531,34.668,112.793,66.895
1584599277.282,-10.742,16.113,32.227,7.812,46.875
1584599277.286,-16.602,17.090,29.785,-51.270,0.000
1584599277.290,36.133,24.414,30.273,34.180,7.812
1584599277.294,54.199,27.344,30.273,108.887,17.090
1584599277.298,8.301,22.461,29.297,52.734,22.949
1584599277.302,-22.949,17.578,26.367,-51.270,-15.625
1584599277.306,15.137,23.438,29.785,-11.719,11.230
1584599277.309,49.805,32.227,31.738,103.027,65.918
1584599277.313,22.949,25.879,25.391,71.777,78.125
1584599277.317,-23.926,19.043,24.414,-53.711,37.598
1584599277.321,1.953,25.391,28.320,-36.133,22.949
1584599277.325,57.617,31.250,34.180,102.539,86.426
1584599277.329,49.316,30.762,29.785,100.098,54.199
1584599277.333,3.906,25.879,24.902,-15.625,59.082
1584599277.337,-1.465,24.414,28.809,-54.199,119.629
1584599277.341,31.250,31.250,32.715,49.316,100.586
1584599277.345,42.480,27.832,33.691,112.305,39.062
1584599277.349,2.930,20.996,27.832,1.953,-3.418
1584599277.352,-6.348,24.414,27.344,-64.941,7.812
1584599277.356,41.504,32.715,32.227,36.133,51.758
1584599277.360,62.012,33.691,35.156,118.652,20.508
1584599277.364,18.555,27.832,32.227,43.457,14.160
1584599277.368,-15.625,27.832,28.320,-62.988,28.320
1584599277.372,26.855,35.645,32.227,-4.395,6.836
1584599277.376,58.594,35.645,34.180,115.723,32.227
1584599277.380,22.461,28.809,31.738,72.266,31.738
1584599277.384,-2.441,28.809,27.832,-53.711,33.203
1584599277.388,15.625,30.273,27.832,-38.086,-4.395
1584599277.392,49.316,34.180,33.691,84.473,36.133
1584599277.395,51.758,35.645,33.203,104.004,111.816
1584599277.399,4.395,27.832,29.785,-0.488,74.219
1584599277.403,4.395,27.344,28.320,-33.203,21.484
1584599277.407,48.828,29.297,29.785,69.336,-2.930
1584599277.411,56.641,30.273,30.762,105.469,21.484
1584599277.415,14.648,30.762,32.715,14.648,54.688
1584599277.419,-8.789,28.809,33.691,-57.129,35.645
1584599277.423,30.273,33.203,34.180,20.020,41.016
1584599277.427,56.641,35.645,34.668,118.164,29.785
1584599277.431,17.090,29.297,35.645,53.711,-35.156
1584599277.434,-17.578,25.391,34.668,-51.758,23.926
1584599277.438,13.184,29.297,32.227,-15.137,93.262
1584599277.442,63.477,30.762,32.227,100.098,57.129
1584599277.446,41.016,27.832,27.344,85.449,12.695
1584599277.450,-20.508,20.996,21.973,-30.273,13.672
1584599277.454,-3.418,19.531,22.949,-50.781,47.852
1584599277.458,46.875,26.855,26.855,62.988,24.902
1584599277.462,46.875,27.832,28.809,112.793,-10.254
1584599277.466,-0.977,19.531,22.949,2.930,-10.254
1584599277.470,-11.719,18.066,22.949,-66.895,27.832
1584599277.474,39.062,26.367,28.320,41.504,38.086
1584599277.477,51.758,25.879,28.320,118.164,16.602
1584599277.481,10.254,20.996,28.320,31.738,-21.484
1584599277.485,-15.137,21.973,26.367,-59.082,-13.672
1584599277.489,33.203,24.902,24.902,9.766,41.992
1584599277.493,60.547,24.902,25.879,116.699,36.621
1584599277.497,14.648,18.066,27.344,80.566,30.762
1584599277.501,-15.137,15.625,26.367,-33.691,54.199
1584599277.505,8.789,23.438,26.855,-24.902,21.973
1584599277.509,53.223,28.809,30.273,98.145,2.930
1584599277.513,39.062,23.438,29.297,90.820,48.340
1584599277.517,-13.672,17.090,24.902,-11.719,31.738
1584599277.520,-1.953,20.996,26.855,-32.227,38.574
1584599277.524,45.898,25.879,30.273,66.406,50.293
1584599277.528,46.387,22.949,33.691,120.117,-0.977
1584599277.532,-1.465,17.578,34.180,9.766,19.043
1584599277.536,-15.625,17.090,26.855,-69.336,-1.465
1584599277.540,35.645,23.926,26.855,44.434,31.738
1584599277.544,54.199,24.902,31.738,121.094,90.332
1584599277.548,16.602,23.438,28.809,18.066,63.477
1584599277.552,-12.207,22.461,26.367,-70.312,58.594
1584599277.556,22.949,24.902,26.855,6.836,59.082
1584599277.559,53.223,31.250,29.297,121.094,43.457
1584599277.563,22.949,26.855,30.273,73.242,39.551
1584599277.567,-14.160,20.996,26.855,-48.340,26.367
1584599277.571,14.160,26.367,24.414,-21.484,-1.953
1584599277.575,72.754,34.668,27.344,105.957,37.598
1584599277.579,45.898,28.320,31.250,98.633,34.180
1584599277.583,-23.926,17.090,26.367,-29.785,24.902
1584599277.587,-14.648,20.996,22.949,-67.871,69.336
1584599277.591,37.598,26.367,28.320,53.223,77.148
1584599277.595,43.945,26.367,31.738,116.699,42.480
1584599277.599,-0.488,22.461,27.832,14.160,23.926
1584599277.602,-1.953,21.973,23.926,-66.895,-38.086
1584599277.606,40.527,28.809,29.297,37.598,-20.508
1584599277.610,57.617,31.250,36.133,133.789,7.812
1584599277.614,24.902,24.902,34.668,56.152,5.371
1584599277.618,-12.695,20.996,30.273,-51.270,-5.371
1584599277.622,26.367,27.832,29.297,-3.906,-12.695
1584599277.626,66.406,32.227,29.297,110.840,9.277
1584599277.630,34.668,28.809,29.297,85.938,12.207
1584599277.634,-12.695,23.438,28.320,-40.039,16.602
1584599277.638,11.719,26.367,26.855,-42.480,7.324
1584599277.642,62.500,32.227,26.367,99.121,-45.898
1584599277.645,48.340,28.320,26.367,123.047,-11.719
1584599277.649,-4.883,22.949,23.438,-14.160,53.711
1584599277.653,1.953,26.367,23.926,-60.059,61.035
1584599277.657,49.805,33.691,25.391,53.223,63.477
1584599277.661,47.363,33.691,22.949,113.281,56.641
1584599277.665,9.277,26.367,18.555,11.719,28.809
1584599277.669,-4.395,24.414,17.090,-63.965,5.859
1584599277.673,40.527,28.320,23.438,21.973,42.969
1584599277.677,69.824,31.250,25.879,117.188,48.340
1584599277.681,32.715,28.320,23.438,50.293,15.625
1584599277.684,-0.488,25.391,26.367,-51.270,39.062
1584599277.688,27.344,27.344,25.879,-7.324,47.363
1584599277.692,60.059,29.785,24.414,112.305,32.715
1584599277.696,36.621,26.367,25.879,96.191,22.461
1584599277.700,-12.207,20.996,28.320,-33.203,16.602
1584599277.704,12.695,20.020,31.738,-24.902,25.879
1584599277.708,67.383,25.391,36.133,103.027,0.488
1584599277.712,43.945,32.227,35.645,107.422,22.949
1584599277.716,-18.066,30.273,27.832,-14.160,49.316
1584599277.720,-15.137,29.785,25.879,-62.988,23.926
1584599277.724,35.645,36.621,29.297,40.527,36.133
1584599277.727,47.363,38.086,28.809,116.211,43.945
1584599277.731,5.859,29.785,26.367,26.855,5.371
1584599277.735,-17.090,24.414,24.414,-61.035,5.371
1584599277.739,21.973,26.367,25.391,6.348,43.945
1584599277.743,46.387,30.273,30.273,114.258,22.949
1584599277.747,15.625,27.832,28.320,67.871,-18.555
1584599277.751,-19.043,24.902,21.973,-57.617,-29.297
1584599277.755,10.742,28.320,24.414,-21.484,10.254
1584599277.759,51.270,32.227,31.738,99.609,21.484
1584599277.763,37.598,29.785,30.273,88.379,5.371
1584599277.767,-10.742,22.949,27.344,-29.785,0.488
1584599277.770,-7.324,24.414,28.320,-54.199,-38.086
1584599277.774,41.504,31.250,34.180,67.871,-22.949
1584599277.778,42.969,30.273,35.645,113.770,20.508
1584599277.782,-2.930,22.461,30.273,2.441,25.391
1584599277.786,-8.301,25.879,32.227,-66.406,42.969
1584599277.790,40.527,34.180,35.645,41.016,-5.371
1584599277.794,57.129,34.668,35.156,128.906,14.160
1584599277.798,15.137,30.762,32.227,39.551,58.594
1584599277.802,-10.742,26.855,29.785,-45.898,53.223
1584599277.806,30.762,31.250,37.109,21.973,24.902
1584599277.809,65.430,33.691,41.992,128.418,15.137
1584599277.813,35.156,28.320,38.086,81.543,73.242
1584599277.817,-14.160,22.949,34.668,-40.527,80.566
1584599277.821,9.277,26.367,34.180,-35.156,41.016
1584599277.825,51.758,29.297,39.062,83.496,42.480
1584599277.829,36.621,22.949,38.574,91.309,31.250
1584599277.833,-4.395,21.484,32.715,-26.367,1.953
1584599277.837,15.625,25.391,32.715,-41.504,9.766
1584599277.841,68.848,29.297,39.551,78.125,24.414
1584599277.845,46.875,26.367,43.457,119.141,48.340
1584599277.849,-19.043,17.090,39.062,6.348,1.465
1584599277.852,-28.809,17.090,38.574,-60.059,39.551
1584599277.856,26.855,20.996,45.898,42.969,108.398
1584599277.860,47.363,21.484,47.852,128.418,41.992
1584599277.864,9.277,18.555,42.480,43.945,54.199
1584599277.868,-20.020,14.648,39.551,-59.082,66.895
1584599277.872,9.766,13.672,42.969,-8.301,20.020
1584599277.876,54.688,16.602,50.293,105.957,64.453
1584599277.880,30.762,18.555,50.781,81.543,64.453
1584599277.884,-22.949,15.137,41.016,-39.551,14.160
1584599277.888,-0.488,18.555,40.039,-39.551,-27.832
1584599277.892,43.945,21.973,44.434,89.844,-38.086
1584599277.895,30.273,18.066,42.969,98.145,53.711
1584599277.899,-17.578,11.230,36.621,-20.996,44.922
1584599277.903,-18.555,13.672,33.203,-61.035,12.695
1584599277.907,30.273,20.508,36.133,45.898,67.383
1584599277.911,47.363,23.438,38.086,121.582,47.852
1584599277.915,-2.441,20.508,34.180,28.320,-49.316
1584599277.919,-20.508,17.090,31.738,-67.871,-8.789
1584599277.923,25.879,26.367,35.645,-0.977,111.816
1584599277.927,41.504,29.785,38.086,112.305,78.613
1584599277.931,6.836,21.973,36.133,58.594,48.340
1584599277.934,-24.414,22.461,35.156,-49.805,21.484
1584599277.938,6.836,27.832,35.156,-14.648,21.973
1584599277.942,46.875,28.320,34.180,89.355,20.996
1584599277.946,26.367,24.414,33.691,78.613,-8.789
1584599277.950,-24.414,23.438,31.250,-39.551,36.133
1584599277.954,-6.836,23.926,30.762,-46.875,62.012
1584599277.958,49.805,27.344,32.227,75.195,13.672
1584599277.962,31.738,26.855,30.762,104.492,8.301
1584599277.966,-20.508,21.484,26.855,-15.625,36.133
1584599277.970,-19.043,22.949,26.855,-71.777,3.418
1584599277.974,24.414,29.297,29.297,45.410,20.508
1584599277.977,31.250,26.367,32.715,117.188,76.172
1584599277.981,-12.207,19.043,32.715,12.207,61.523
1584599277.985,-35.156,17.090,30.762,-83.496,56.152
1584599277.989,4.883,18.555,35.156,-0.488,43.457
1584599277.993,34.668,19.531,39.551,108.398,29.785
1584599277.997,1.465,15.137,38.086,49.805,59.570
1584599278.001,-35.645,10.742,34.180,-61.523,76.660
1584599278.005,-7.812,15.625,28.320,-30.273,68.848
1584599278.009,46.387,21.973,27.344,73.242,49.316
1584599278.013,24.902,21.484,29.297,66.406,45.898
1584599278.017,-25.879,17.578,25.879,-36.621,14.648
1584599278.020,-12.207,18.066,26.367,-58.105,-19.043
1584599278.024,36.621,25.391,32.715,62.012,42.480
1584599278.028,36.621,25.879,33.691,109.863,56.641
1584599278.032,-16.602,18.555,28.320,-0.977,6.348
1584599278.036,-30.273,15.137,29.297,-73.730,-15.137
1584599278.040,20.996,20.996,33.203,16.602,40.527
1584599278.044,40.039,25.391,34.668,109.863,60.547
1584599278.048,4.395,21.973,31.738,28.320,1.465
1584599278.052,-15.625,19.043,22.949,-76.172,32.227
1584599278.056,13.672,20.996,27.344,-15.625,22.949
1584599278.059,42.480,24.902,34.180,100.098,-19.043
1584599278.063,16.113,22.949,31.250,63.965,-32.715
1584599278.067,-23.926,16.113,28.809,-53.711,2.441
1584599278.071,2.441,20.508,28.809,-23.438,43.945
1584599278.075,49.316,27.832,30.762,95.703,29.785
1584599278.079,35.156,26.367,32.227,91.797,-24.414
1584599278.083,-13.672,23.438,30.273,-16.602,-0.977
1584599278.087,-7.324,25.879,32.715,-42.480,61.035
1584599278.091,51.270,31.738,34.668,71.777,36.133
1584599278.095,62.012,32.227,35.645,125.488,-32.227
1584599278.099,16.602,24.902,32.715,28.809,-20.020
1584599278.102,-1.465,23.926,26.367,-57.617,21.484
1584599278.106,37.109,32.715,29.297,29.785,26.367
1584599278.110,73.242,33.203,31.738,128.418,19.531
1584599278.114,37.109,25.391,26.367,59.082,45.898
1584599278.118,-8.301,25.391,23.438,-49.316,62.988
1584599278.122,24.414,28.809,25.391,-10.254,49.316
1584599278.126,57.617,29.785,27.832,106.445,34.180
1584599278.130,34.180,31.250,25.391,82.520,74.219
1584599278.134,-2.441,25.391,22.461,-31.250,20.020
1584599278.138,14.648,24.414,23.438,-30.762,-10.742
1584599278.142,61.523,30.273,27.832,87.891,22.461
1584599278.145,49.316,28.809,27.344,115.234,49.316
1584599278.149,-3.906,23.438,20.996,-14.160,29.785
1584599278.153,-3.906,23.438,21.973,-68.848,-5.859
1584599278.157,37.109,26.855,24.414,42.969,24.902
1584599278.161,53.711,28.809,23.926,106.934,10.254
1584599278.165,10.742,24.414,24.414,20.996,-19.531
1584599278.169,-21.973,15.137,26.367,-55.176,-33.691
1584599278.173,34.668,19.043,27.832,36.621,6.836
1584599278.177,56.641,29.785,25.879,109.375,39.062
1584599278.181,4.395,28.809,19.043,30.273,24.414
1584599278.184,-32.227,21.973,15.625,-70.801,5.859
1584599278.188,1.953,22.461,21.484,-33.203,4.883
1584599278.192,43.945,28.809,20.996,83.984,30.762
1584599278.196,19.043,30.762,17.578,64.941,35.156
1584599278.200,-31.738,21.973,20.020,-56.641,-3.906
1584599278.204,-19.531,15.625,17.090,-50.293,-5.371
1584599278.208,41.504,23.438,17.090,78.613,36.133
1584599278.212,41.992,27.832,17.090,96.680,57.617
1584599278.216,-19.043,20.020,15.137,-16.113,30.273
1584599278.220,-20.996,16.602,17.090,-56.152,21.484
1584599278.224,29.297,22.949,20.020,46.387,33.203
1584599278.227,38.574,25.391,21.973,98.633,20.996
1584599278.231,-1.465,20.508,20.020,12.695,-10.254
1584599278.235,-19.531,20.020,20.996,-67.871,-17.090
1584599278.239,20.508,25.391,21.484,10.254,26.367
1584599278.243,48.340,29.785,21.484,119.141,58.105
1584599278.247,20.020,26.367,21.484,62.012,0.488
1584599278.251,-20.508,20.508,17.090,-69.824,-47.852
1584599278.255,3.418,27.344,16.602,-35.645,31.250
1584599278.259,51.270,32.715,20.996,100.098,60.059
1584599278.263,26.367,30.762,22.461,91.797,47.852
1584599278.267,-14.648,26.855,22.949,-41.992,2.930
1584599278.270,6.836,28.320,24.414,-47.852,-36.621
1584599278.274,45.410,34.668,28.809,69.824,44.922
1584599278.278,39.062,36.621,32.227,97.656,55.176
1584599278.282,-4.395,30.762,29.297,-2.441,3.418
1584599278.286,-10.742,29.297,27.344,-57.129,48.340
1584599278.290,30.762,33.691,31.250,21.484,61.523
1584599278.294,45.898,32.227,33.691,103.516,-0.488
1584599278.298,0.488,28.809,31.738,25.879,-4.395
1584599278.302,-24.902,25.879,33.691,-77.148,52.246
1584599278.306,12.207,27.344,36.133,-13.672,102.051
1584599278.309,40.039,30.762,32.715,99.609,12.695
1584599278.313,16.113,29.297,31.250,57.129,10.254
1584599278.317,-27.344,22.949,29.297,-53.711,38.574
1584599278.321,-2.441,22.949,31.250,-32.227,-8.789
1584599278.325,42.480,31.250,32.715,76.660,46.387
1584599278.329,32.715,29.297,30.762,87.891,19.043
1584599278.333,-13.672,23.438,28.809,-31.250,-28.320
1584599278.337,-9.277,23.438,29.785,-61.035,-12.207
1584599278.341,39.551,30.273,30.273,50.293,9.277
1584599278.345,43.945,30.762,32.715,113.770,-1.465
1584599278.349,0.977,24.902,28.809,8.789,-37.109
1584599278.352,-12.695,24.902,22.949,-64.453,0.000
1584599278.356,32.227,29.785,27.832,28.320,32.715
1584599278.360,50.293,30.273,32.227,111.816,-10.254
1584599278.364,9.766,23.438,26.855,49.316,14.160
1584599278.368,-11.719,17.090,22.461,-64.453,54.688
1584599278.372,25.879,21.484,25.879,-13.184,23.926
1584599278.376,50.293,26.367,26.855,112.305,42.969
1584599278.380,26.367,20.508,23.438,81.543,26.855
1584599278.384,-12.207,13.184,22.949,-42.480,23.926
1584599278.388,9.766,17.090,28.320,-36.621,-8.301
1584599278.392,58.594,27.832,28.809,95.703,6.348
1584599278.395,50.781,26.855,25.391,109.863,65.430
1584599278.399,-5.371,19.043,23.926,-19.043,23.438
1584599278.403,-8.301,20.996,22.949,-46.387,-29.297
1584599278.407,44.922,27.832,22.461,66.406,-7.812
1584599278.411,55.664,27.832,22.949,115.234,56.152
1584599278.415,7.324,20.508,21.973,15.625,36.621
1584599278.419,-13.184,19.531,22.949,-49.316,-18.066
1584599278.423,45.898,29.297,25.391,37.598,32.227
1584599278.427,71.289,31.738,22.461,116.699,22.461
1584599278.431,18.066,26.367,16.602,49.805,23.926
1584599278.434,-11.230,21.973,17.578,-55.664,23.438
1584599278.438,16.602,23.926,23.926,-2.930,-10.254
1584599278.442,49.316,28.320,24.414,112.305,8.301
1584599278.446,33.203,25.391,20.508,77.637,18.066
1584599278.450,-13.672,19.531,17.090,-41.016,22.461
1584599278.454,-2.441,21.484,19.531,-39.062,60.547
1584599278.458,47.852,26.855,29.785,87.891,62.012
1584599278.462,41.504,24.902,31.250,111.328,34.668
1584599278.466,-9.277,18.555,25.879,-5.371,-20.020
1584599278.470,-1.465,18.555,22.461,-61.523,-12.695
1584599278.474,45.898,23.926,23.438,50.293,6.836
1584599278.477,45.410,29.297,26.855,113.770,20.020
1584599278.481,5.859,28.320,26.367,24.902,30.762
1584599278.485,-14.648,24.902,21.484,-67.383,-13.184
1584599278.489,27.832,27.344,21.973,-5.371,-5.859
1584599278.493,61.035,32.227,25.879,104.980,30.762
1584599278.497,28.320,30.762,26.367,78.613,28.809
1584599278.501,-15.137,24.414,22.949,-41.504,3.418
1584599278.505,15.625,26.855,21.484,-33.203,-51.758
1584599278.509,59.082,30.762,24.902,97.168,-48.340
1584599278.513,39.062,24.414,26.367,102.539,6.348
1584599278.517,2.441,18.555,25.391,-6.348,5.371
1584599278.520,8.301,24.902,21.973,-39.551,-18.555
1584599278.524,44.922,36.133,21.973,71.289,18.066
1584599278.528,44.922,38.086,20.996,102.051,46.387
1584599278.532,-0.977,30.273,15.625,-11.719,55.176
1584599278.536,-13.672,27.832,13.184,-72.266,69.824
1584599278.540,31.738,36.133,12.207,17.578,31.250
1584599278.544,49.316,36.133,15.625,107.422,19.043
1584599278.548,10.254,29.785,17.090,35.156,30.762
1584599278.552,-10.254,29.297,17.090,-55.664,1.465
1584599278.556,29.785,30.273,20.996,3.906,-27.832
1584599278.559,73.730,36.133,21.973,116.211,-11.719
1584599278.563,45.410,36.133,19.043,77.637,19.043
1584599278.567,-6.348,28.320,16.113,-29.297,21.973
1584599278.571,20.508,30.762,20.020,-16.602,6.836
1584599278.575,59.570,35.156,25.879,93.750,20.020
1584599278.579,47.363,34.668,22.461,98.145,43.945
1584599278.583,2.930,30.273,16.113,-20.020,39.551
1584599278.587,6.836,31.250,15.625,-51.270,-3.906
1584599278.591,55.176,34.668,20.020,73.730,40.039
1584599278.595,68.848,31.738,24.414,133.789,53.711
1584599278.599,15.625,23.926,23.926,12.207,-5.371
1584599278.602,-9.766,21.484,22.949,-59.570,22.949
1584599278.606,39.062,23.438,26.855,32.227,51.758
1584599278.610,61.035,25.879,28.809,113.281,42.969
1584599278.614,20.508,21.973,28.320,46.875,46.875
1584599278.618,-11.230,16.602,28.320,-44.434,43.945
1584599278.622,21.973,17.090,27.832,-15.137,17.090
1584599278.626,57.617,21.973,28.809,105.469,9.766
1584599278.630,33.691,26.855,26.855,80.566,76.172
1584599278.634,-3.906,20.020,20.996,-50.781,60.547
1584599278.638,13.184,20.996,20.020,-42.969,-31.738
1584599278.642,47.852,25.879,27.832,83.496,26.367
1584599278.645,43.945,22.461,32.227,115.723,41.504
1584599278.649,0.488,17.090,27.832,-7.324,33.203
1584599278.653,-4.883,17.090,23.926,-61.035,66.406
1584599278.657,45.410,27.832,26.367,53.711,36.621
1584599278.661,60.059,30.273,30.273,125.488,57.617
1584599278.665,10.742,23.438,30.273,30.762,16.602
1584599278.669,-5.859,22.461,29.785,-62.988,40.039
1584599278.673,44.434,27.344,32.715,26.855,68.359
1584599278.677,72.266,35.645,33.203,122.070,-9.277
1584599278.681,32.715,32.227,32.715,58.105,6.348
1584599278.684,-7.812,25.879,30.762,-49.805,16.602
1584599278.688,21.973,29.785,29.785,-14.160,54.688
1584599278.692,61.523,35.156,31.738,107.910,65.430
1584599278.696,42.969,32.715,27.832,90.332,45.410
1584599278.700,-12.207,26.855,20.996,-32.715,25.391
1584599278.704,-0.488,29.297,21.484,-45.410,0.977
1584599278.708,57.617,31.738,26.367,76.660,13.672
1584599278.712,48.340,26.855,24.902,102.051,41.992
1584599278.716,-7.812,19.043,21.973,-15.625,21.973
1584599278.720,-2.441,21.973,23.926,-64.941,15.625
1584599278.724,49.316,27.344,27.832,60.059,24.902
1584599278.727,51.270,26.855,24.902,118.652,8.301
1584599278.731,11.719,24.902,20.996,14.160,5.859
1584599278.735,-12.695,23.438,20.508,-58.105,33.691
1584599278.739,22.949,24.414,23.438,19.531,52.734
1584599278.743,59.082,24.902,22.461,114.258,14.160
1584599278.747,22.461,21.484,18.066,68.848,4.883
1584599278.751,-25.391,16.602,17.578,-43.945,5.859
1584599278.755,13.672,23.926,20.020,-28.809,53.223
1584599278.759,58.105,28.809,23.438,90.332,83.008
1584599278.763,31.250,22.949,23.438,82.031,31.738
1584599278.767,-13.184,20.020,20.996,-28.320,56.641
1584599278.770,2.930,23.926,18.555,-51.270,58.105
1584599278.774,53.223,29.785,20.508,59.570,7.812
1584599278.778,49.316,28.320,23.926,113.770,21.973
1584599278.782,-12.207,21.484,25.879,-2.441,7.324
1584599278.786,-26.367,15.625,24.414,-79.590,-25.391
1584599278.790,30.762,22.461,28.320,27.832,28.809
1584599278.794,50.293,29.297,29.785,125.000,6.836
1584599278.798,2.930,25.879,23.438,39.551,25.879
1584599278.802,-22.461,19.531,24.414,-74.219,28.809
1584599278.806,18.555,23.926,31.250,5.371,20.508
1584599278.809,53.223,32.227,29.297,103.516,53.223
1584599278.813,25.391,27.344,22.461,58.105,76.172
1584599278.817,-12.207,20.996,19.531,-44.922,59.570
1584599278.821,12.695,23.926,22.949,-41.016,5.371
1584599278.825,47.363,28.809,25.879,85.449,48.340
1584599278.829,33.691,25.879,24.414,100.098,45.898
1584599278.833,-16.602,19.043,21.973,-32.715,20.508
1584599278.837,-13.184,18.555,21.973,-62.988,65.918
1584599278.841,41.504,23.438,25.391,60.059,74.219
1584599278.845,48.340,23.926,25.391,113.770,45.898
1584599278.849,-2.930,16.602,23.438,12.207,44.434
1584599278.852,-13.672,14.648,24.414,-62.988,38.086
1584599278.856,34.180,21.973,27.344,25.391,1.465
1584599278.860,52.734,24.902,29.785,115.234,26.367
1584599278.864,13.672,19.531,31.250,39.551,9.766
1584599278.868,-14.648,19.043,33.691,-52.734,69.824
1584599278.872,29.297,19.531,40.039,17.090,135.254
1584599278.876,82.031,21.973,40.039,144.043,93.262
1584599278.880,45.410,26.367,30.762,95.215,42.480
1584599278.884,-24.902,23.926,25.391,-68.848,11.230
1584599278.888,-10.742,25.879,27.344,-65.430,34.180
1584599278.892,48.340,30.273,28.320,73.242,69.824
1584599278.895,41.992,30.273,28.320,92.773,56.152
1584599278.899,-6.836,30.762,25.391,-21.484,1.465
1584599278.903,-3.418,36.621,20.996,-56.641,8.301
1584599278.907,41.992,40.039,22.461,41.504,7.812
1584599278.911,62.500,41.992,23.926,98.145,4.395
1584599278.915,18.066,39.062,22.461,18.555,38.086
1584599278.919,-18.066,34.180,20.020,-63.965,21.484
1584599278.923,27.832,37.109,20.508,6.348,0.488
1584599278.927,58.594,37.598,20.508,110.840,0.977
1584599278.931,24.414,32.227,19.531,51.270,41.992
1584599278.934,-15.137,27.344,21.484,-51.270,66.406
1584599278.938,15.137,29.785,21.484,-19.531,53.711
1584599278.942,61.523,35.156,20.996,101.562,47.363
1584599278.946,36.621,35.156,20.996,83.008,71.289
1584599278.950,-14.648,28.320,19.531,-46.387,43.945
1584599278.954,5.859,28.320,20.996,-49.805,8.789
1584599278.958,55.664,37.598,24.414,70.312,32.715
1584599278.962,45.410,36.133,25.879,108.398,-39.062
1584599278.966,-6.348,25.879,24.902,-2.441,-18.555
1584599278.970,-12.695,26.367,23.438,-56.641,24.414
1584599278.974,46.875,37.109,27.832,43.945,-7.812
1584599278.977,60.059,37.109,31.250,104.492,-22.949
1584599278.981,2.930,28.320,27.344,19.531,18.066
1584599278.985,-20.020,25.391,22.949,-67.383,35.645
1584599278.989,24.902,30.762,24.414,-2.441,8.789
1584599278.993,53.711,32.715,26.855,107.910,56.641
1584599278.997,16.602,27.832,25.879,66.895,74.707
1584599279.001,-18.555,22.949,22.461,-65.918,29.297
1584599279.005,10.254,26.855,23.438,-33.691,-23.438
1584599279.009,51.758,33.203,27.832,103.027,15.137
1584599279.013,35.156,32.227,25.391,78.125,8.789
1584599279.017,-12.695,27.344,21.973,-43.945,-14.160
1584599279.020,3.906,30.762,23.926,-57.129,22.461
1584599279.024,45.410,32.227,29.785,62.012,75.195
1584599279.028,40.527,30.273,31.738,115.234,32.715
1584599279.032,0.977,30.273,30.273,1.953,1.465
1584599279.036,-14.648,29.785,31.250,-71.289,38.574
1584599279.040,30.762,30.762,32.715,32.227,20.508
1584599279.044,48.828,27.344,34.180,111.816,72.754
1584599279.048,6.836,24.902,32.227,41.016,79.590
1584599279.052,-20.996,25.391,28.809,-65.918,30.762
1584599279.056,13.672,28.809,28.320,-13.672,31.738
1584599279.059,46.875,32.227,31.250,99.609,28.320
1584599279.063,15.625,26.855,29.785,54.199,6.836
1584599279.067,-29.297,23.438,25.391,-52.734,31.250
1584599279.071,2.930,25.391,24.902,-44.922,46.875
1584599279.075,48.828,29.297,29.297,69.336,36.621
1584599279.079,25.879,29.297,30.762,86.426,54.199
1584599279.083,-15.137,25.391,28.809,-29.785,16.113
1584599279.087,-8.301,25.391,30.273,-63.477,-51.270
1584599279.091,39.062,30.762,32.715,50.293,13.672
1584599279.095,39.062,34.668,33.203,108.398,63.477
1584599279.099,-0.977,31.738,27.344,8.789,12.695
1584599279.102,-4.395,30.762,25.391,-60.059,22.949
1584599279.106,30.273,35.156,32.715,18.066,45.410
1584599279.110,33.691,34.668,36.133,96.191,37.109
1584599279.114,-4.883,29.297,32.227,30.273,44.434
1584599279.118,-24.414,22.949,33.203,-61.035,43.457
1584599279.122,5.371,23.926,34.668,-10.254,12.207
1584599279.126,48.340,29.785,37.109,94.727,-18.066
1584599279.130,26.367,26.367,36.133,68.359,25.879
1584599279.134,-23.438,21.484,32.227,-49.316,41.016
1584599279.138,-1.953,24.902,32.715,-46.387,4.395
1584599279.142,47.363,31.738,35.156,87.891,-33.203
1584599279.145,44.434,30.273,34.180,115.234,-21.973
1584599279.149,-1.953,24.902,32.227,-5.859,42.969
1584599279.153,-0.977,26.855,32.715,-58.594,-9.277
1584599279.157,49.316,33.203,37.109,65.918,-10.742
1584599279.161,57.617,34.180,40.527,130.371,23.438
1584599279.165,14.160,26.367,36.621,31.250,-6.348
1584599279.169,0.488,23.926,35.645,-50.293,24.902
1584599279.173,44.434,29.785,40.039,13.672,24.902
1584599279.177,65.918,32.227,36.621,122.070,-1.953
1584599279.181,27.344,29.297,31.738,57.129,39.062
1584599279.184,-9.277,28.320,30.273,-61.035,77.148
1584599279.188,21.484,30.273,30.273,-13.184,47.852
1584599279.192,63.965,32.715,31.738,116.211,48.828
1584599279.196,43.457,29.297,35.645,100.098,52.246
1584599279.200,-2.930,24.902,36.133,-22.461,0.488
1584599279.204,1.465,25.879,36.133,-34.180,0.000
1584599279.208,48.828,28.809,37.109,98.633,46.875
1584599279.212,47.852,28.809,36.133,124.512,90.332
1584599279.216,-0.977,28.320,30.762,-11.230,10.742
1584599279.220,-8.301,27.344,27.344,-55.664,-38.086
1584599279.224,35.156,29.785,28.809,50.781,34.180
1584599279.227,50.293,33.691,29.297,114.258,21.484
1584599279.231,10.742,28.809,26.855,26.855,9.766
1584599279.235,-20.508,21.484,23.926,-59.570,22.949
1584599279.239,17.578,25.879,28.809,9.766,54.199
1584599279.243,49.805,31.738,34.180,102.051,36.621
1584599279.247,18.066,29.297,30.762,58.105,17.578
1584599279.251,-20.508,24.902,28.320,-49.316,33.203
1584599279.255,4.395,26.855,31.738,-26.367,13.184
1584599279.259,55.176,33.203,34.668,94.238,38.086
1584599279.263,41.016,30.273,34.668,91.309,19.043
1584599279.267,-12.207,25.391,33.691,-20.996,36.621
1584599279.270,0.488,28.320,34.180,-47.363,53.711
1584599279.274,49.805,33.203,37.598,83.984,69.824
1584599279.278,56.152,32.715,38.574,125.000,93.262
1584599279.282,9.766,26.367,31.250,-2.441,18.066
1584599279.286,-16.113,22.949,32.227,-64.941,-1.465
1584599279.290,31.250,27.832,39.062,29.785,19.531
1584599279.294,46.875,28.320,36.621,117.188,25.391
1584599279.298,2.441,22.461,34.668,40.039,27.344
1584599279.302,-19.043,18.066,36.133,-60.059,35.645
1584599279.306,20.020,23.926,40.527,3.906,14.648
1584599279.309,53.711,28.809,41.016,123.047,26.855
1584599279.313,28.809,25.879,41.016,83.008,71.777
1584599279.317,-17.090,21.484,37.109,-43.945,61.035
1584599279.321,6.348,22.949,34.668,-32.227,0.488
1584599279.325,53.711,28.809,39.551,98.633,-5.371
1584599279.329,36.133,27.832,41.016,103.516,-12.695
1584599279.333,-14.160,22.949,32.227,-31.738,38.574
1584599279.337,3.418,22.949,28.320,-56.641,39.551
1584599279.341,53.223,28.320,33.691,64.941,-23.926
1584599279.345,44.434,25.391,34.668,119.141,9.277
1584599279.349,-0.977,19.043,31.738,18.555,48.828
1584599279.352,-17.090,18.555,31.738,-61.035,72.754
1584599279.356,30.273,20.020,34.180,25.391,37.598
1584599279.360,51.270,21.484,34.180,118.652,26.367
1584599279.364,10.254,19.531,30.273,53.223,16.113
1584599279.368,-17.090,18.555,26.855,-52.734,17.578
1584599279.372,17.090,26.367,28.320,-12.695,44.434
1584599279.376,50.293,31.250,28.320,97.656,41.992
1584599279.380,31.250,28.320,29.297,80.566,24.902
1584599279.384,-10.742,23.926,26.855,-25.391,-26.367
1584599279.388,9.766,24.902,24.414,-40.039,7.812
1584599279.392,56.641,27.832,28.320,74.707,15.137
1584599279.395,43.945,25.879,30.762,98.633,2.441
1584599279.399,-5.371,19.043,27.344,-8.789,27.832
1584599279.403,-9.766,20.508,24.414,-49.316,8.789
1584599279.407,48.828,26.855,28.320,51.758,-9.277
1584599279.411,66.406,25.879,27.344,122.070,36.621
1584599279.415,5.371,24.902,23.926,20.996,68.359
1584599279.419,-16.602,22.461,24.902,-69.336,61.523
1584599279.423,37.109,28.320,26.855,9.277,24.414
1584599279.427,82.520,36.621,27.344,119.141,20.020
1584599279.431,53.711,27.344,30.273,81.055,-10.742
1584599279.434,-0.488,18.066,32.227,-27.344,-4.883
1584599279.438,5.859,19.531,30.762,-30.762,58.594
1584599279.442,44.922,25.879,34.180,83.984,73.242
1584599279.446,36.621,23.926,36.621,92.285,41.016
1584599279.450,-11.719,16.113,34.668,-32.715,19.531
1584599279.454,-5.859,16.113,34.668,-48.340,32.715
1584599279.458,37.598,20.020,41.016,74.707,-1.953
1584599279.462,39.551,19.043,42.480,104.980,-7.324
1584599279.466,-7.812,11.230,39.551,4.883,32.715
1584599279.470,-22.461,9.766,41.992,-50.781,13.184
1584599279.474,41.992,14.160,41.992,33.691,8.789
1584599279.477,62.500,17.578,40.039,114.258,33.691
1584599279.481,5.859,12.695,37.598,33.203,35.645
1584599279.485,-16.602,9.766,34.668,-54.199,44.922
1584599279.489,17.578,15.137,37.109,13.184,47.363
1584599279.493,50.293,17.578,41.016,114.746,57.129
1584599279.497,19.043,16.602,39.551,77.148,111.816
1584599279.501,-21.484,13.184,35.645,-46.387,59.082
1584599279.505,5.371,17.578,33.691,-30.762,39.062
1584599279.509,47.363,24.902,35.645,95.215,68.359
1584599279.513,35.156,23.438,36.621,90.820,22.461
1584599279.517,-18.555,17.578,33.203,-34.180,-27.832
1584599279.520,-10.254,19.043,32.227,-57.617,-14.160
1584599279.524,43.457,24.414,32.715,68.359,58.105
1584599279.528,41.016,23.926,34.180,111.816,75.195
1584599279.532,-8.789,19.043,33.691,-4.395,51.758
1584599279.536,-18.555,18.555,30.273,-68.359,41.016
1584599279.540,32.227,26.367,34.180,32.715,48.828
1584599279.544,54.199,27.344,38.086,114.746,60.547
1584599279.548,12.207,19.531,33.203,44.434,35.645
1584599279.552,-24.902,16.113,30.273,-55.664,40.527
1584599279.556,14.160,21.973,34.668,-8.301,34.668
1584599279.559,52.734,29.785,35.645,108.887,4.883
1584599279.563,26.367,26.367,28.809,72.266,-0.977
1584599279.567,-16.602,23.438,23.438,-58.105,-10.742
1584599279.571,5.371,26.367,26.855,-41.016,12.695
1584599279.575,49.805,26.855,32.715,92.285,-9.766
1584599279.579,35.645,26.367,31.738,100.586,-42.480
1584599279.583,-7.324,21.973,28.320,-17.578,19.531
1584599279.587,-11.719,20.996,27.832,-51.758,57.129
1584599279.591,40.039,27.832,28.320,60.547,19.043
1584599279.595,54.688,29.785,29.785,114.258,-1.465
1584599279.599,4.395,25.391,27.832,11.719,53.223
1584599279.602,-6.348,25.879,25.391,-59.082,66.895
1584599279.606,46.875,31.250,28.320,27.832,-5.371
1584599279.610,65.918,34.668,30.273,119.141,35.645
1584599279.614,17.578,29.297,27.344,41.992,36.621
1584599279.618,-16.113,25.879,28.809,-64.453,10.742
1584599279.622,21.973,30.273,33.691,-10.742,-40.527
1584599279.626,56.641,33.691,36.133,102.051,-46.875
1584599279.630,27.832,33.691,34.668,76.660,68.848
1584599279.634,-16.113,25.391,32.227,-36.133,21.973
1584599279.638,2.441,24.414,33.203,-33.691,-0.977
1584599279.642,58.594,30.273,28.809,79.590,109.375
1584599279.645,46.875,27.832,25.879,104.492,54.199
1584599279.649,-14.648,22.949,26.367,-18.066,26.855
1584599279.653,-15.137,24.414,27.832,-68.848,70.312
1584599279.657,30.762,25.879,30.762,50.781,34.180
1584599279.661,39.062,24.902,30.762,107.422,14.160
1584599279.665,-3.418,21.973,28.809,8.789,24.414
1584599279.669,-20.020,19.531,27.832,-68.848,46.387
1584599279.673,26.855,24.902,29.785,12.695,67.871
1584599279.677,55.176,27.344,28.809,116.211,60.059
1584599279.681,16.113,25.391,26.855,62.988,34.668
1584599279.684,-21.484,24.902,25.391,-47.852,27.832
1584599279.688,14.648,26.855,24.902,-12.207,48.340
1584599279.692,59.082,28.320,26.367,108.398,9.766
1584599279.696,38.574,26.855,26.367,86.426,4.883
1584599279.700,-12.207,23.438,22.949,-36.133,-0.977
1584599279.704,-5.371,22.949,23.926,-50.293,-13.672
1584599279.708,42.480,26.367,27.344,71.777,-15.137
1584599279.712,40.039,25.879,26.855,118.652,29.297
1584599279.716,-12.207,20.996,24.414,-0.977,40.527
1584599279.720,-20.508,20.508,24.414,-65.430,18.066
1584599279.724,43.457,27.344,30.273,39.551,53.223
1584599279.727,54.199,29.785,31.250,120.605,59.082
1584599279.731,-1.953,25.879,25.879,42.969,45.898
1584599279.735,-18.555,25.879,23.926,-62.012,69.824
1584599279.739,28.809,31.250,27.832,5.859,72.266
1584599279.743,58.594,33.691,31.738,118.164,57.617
1584599279.747,20.996,28.320,33.691,67.383,45.410
1584599279.751,-20.996,22.949,30.273,-51.758,-26.367
1584599279.755,8.789,28.809,34.668,-20.020,-1.953
1584599279.759,54.688,34.180,36.621,102.539,57.129
1584599279.763,31.738,31.250,33.691,95.703,33.203
1584599279.767,-13.672,28.809,30.762,-19.043,64.453
1584599279.770,0.488,31.250,30.762,-38.574,91.797
1584599279.774,50.781,33.691,32.227,88.867,56.152
1584599279.778,59.570,32.715,28.809,113.770,73.242
1584599279.782,3.418,27.344,25.879,-3.418,57.617
1584599279.786,-19.531,22.461,23.926,-59.570,-7.812
1584599279.790,28.809,24.414,25.879,26.855,-46.875
1584599279.794,49.805,26.855,27.344,111.328,-51.270
1584599279.798,9.766,24.902,26.367,38.574,-60.547
1584599279.802,-20.508,23.438,27.832,-53.223,-25.879
1584599279.806,21.484,26.367,28.809,3.906,11.230
1584599279.809,57.617,30.273,29.785,100.586,0.000
1584599279.813,22.461,29.297,31.738,65.918,8.789
1584599279.817,-17.090,23.926,29.297,-41.016,32.715
1584599279.821,9.766,26.367,28.320,-23.926,21.484
1584599279.825,57.129,33.203,31.738,96.680,-6.836
1584599279.829,46.875,29.785,34.180,105.957,20.996
1584599279.833,-8.301,21.973,32.715,0.000,10.742
1584599279.837,-3.418,22.461,30.273,-41.992,2.930
1584599279.841,46.387,28.809,34.668,47.852,-0.488
1584599279.845,58.105,31.250,37.598,109.375,7.812
1584599279.849,8.789,25.879,33.691,22.949,48.828
1584599279.852,-28.320,21.973,35.645,-58.105,30.273
1584599279.856,20.020,26.855,38.086,21.973,24.414
1584599279.860,50.781,30.273,33.203,114.746,85.449
1584599279.864,7.812,22.949,30.762,46.387,46.387
1584599279.868,-28.809,20.020,33.691,-55.176,57.129
1584599279.872,14.648,26.367,35.156,-6.348,41.992
1584599279.876,58.594,30.273,35.156,106.934,-59.082
1584599279.880,24.414,26.855,35.156,93.750,45.898
1584599279.884,-17.578,20.996,30.273,-35.156,107.910
1584599279.888,9.766,25.879,28.809,-51.270,30.273
1584599279.892,54.688,33.203,31.250,80.078,48.340
1584599279.895,43.457,28.809,30.273,118.164,27.832
1584599279.899,-3.906,20.996,25.879,-2.930,-30.273
1584599279.903,-5.371,22.461,24.414,-49.316,-21.973
1584599279.907,41.992,28.320,28.320,62.500,36.133
1584599279.911,53.711,27.832,28.320,115.234,36.133
1584599279.915,9.766,27.344,26.855,26.367,-5.371
1584599279.919,-12.695,26.367,25.879,-56.152,17.578
1584599279.923,39.551,27.832,26.367,20.508,20.508
1584599279.927,92.773,28.320,28.320,139.648,15.137
1584599279.931,49.316,22.949,28.320,79.102,39.062
1584599279.934,-19.043,20.508,26.367,-67.383,27.832
1584599279.938,2.930,24.414,29.785,-41.504,34.668
1584599279.942,38.086,27.344,31.738,84.961,12.207
1584599279.946,24.902,24.902,31.250,76.660,-29.297
1584599279.950,-14.160,19.531,32.227,-32.715,6.348
1584599279.954,-8.789,23.438,32.715,-42.480,78.125
1584599279.958,38.086,31.250,32.715,69.824,36.621
1584599279.962,39.551,27.344,32.227,109.863,0.000
1584599279.966,-10.254,17.578,33.203,12.207,30.273
1584599279.970,-18.555,16.113,29.297,-52.246,24.414
1584599279.974,32.715,22.461,29.785,36.133,22.949
1584599279.977,47.852,25.391,30.762,120.605,58.594
1584599279.981,-2.441,20.508,28.809,41.016,26.855
1584599279.985,-28.320,18.555,27.832,-53.223,-11.230
1584599279.989,20.508,25.391,27.832,5.371,0.000
1584599279.993,56.152,33.691,31.250,109.375,-10.254
1584599279.997,25.391,32.715,33.203,67.871,25.391
1584599280.001,-15.625,26.855,29.785,-54.199,24.414
1584599280.005,8.301,27.832,27.832,-31.250,45.410
1584599280.009,54.688,31.250,32.715,100.098,50.781
1584599280.013,39.551,29.785,35.156,97.168,-8.301
1584599280.017,-13.184,25.879,28.809,-27.832,18.066
1584599280.020,-0.977,26.367,27.832,-51.270,12.207
1584599280.024,43.945,29.297,32.227,63.965,6.836
1584599280.028,40.527,28.320,32.715,114.258,18.066
1584599280.032,-2.930,22.461,29.785,16.602,39.551
1584599280.036,-17.578,20.508,28.320,-49.316,83.984
1584599280.040,42.480,26.855,31.250,40.039,40.527
1584599280.044,73.730,30.273,29.785,128.906,37.109
1584599280.048,28.809,28.809,25.391,56.152,22.949
1584599280.052,-0.977,26.855,23.926,-51.270,-26.367
1584599280.056,41.504,31.250,27.344,9.277,-76.660
1584599280.059,82.520,36.133,31.738,116.211,28.320
1584599280.063,50.293,32.227,31.738,79.590,57.617
1584599280.067,0.977,24.414,33.691,-26.367,13.672
1584599280.071,16.602,25.391,39.062,-9.766,52.246
1584599280.075,58.594,29.785,41.992,109.375,15.137
1584599280.079,42.480,25.879,38.086,115.234,4.395
1584599280.083,-0.977,25.391,34.668,-3.906,62.500
1584599280.087,3.906,29.297,32.715,-47.852,53.223
1584599280.091,46.875,33.691,32.715,62.500,3.418
1584599280.095,67.383,35.156,33.691,130.859,50.781
1584599280.099,16.113,28.809,33.203,38.086,75.195
1584599280.102,-23.438,25.391,32.227,-59.570,60.547
1584599280.106,23.438,27.344,35.156,13.672,35.156
1584599280.110,61.523,25.879,41.992,119.141,14.648
1584599280.114,22.949,22.949,41.992,76.660,17.578
1584599280.118,-7.812,23.926,36.621,-40.527,18.555
1584599280.122,33.203,27.344,34.180,-13.184,47.852
1584599280.126,67.871,30.273,38.086,110.840,55.176
1584599280.130,39.062,28.809,37.109,90.332,15.137
1584599280.134,-10.254,22.949,29.785,-24.902,32.227
1584599280.138,7.812,23.438,28.809,-30.762,75.684
1584599280.142,58.105,29.785,28.320,94.727,72.754
1584599280.145,50.781,26.855,27.832,117.188,38.574
1584599280.149,-1.953,21.484,27.344,-8.301,-2.441
1584599280.153,-7.812,23.926,25.391,-48.828,-4.883
1584599280.157,53.711,30.273,30.273,56.641,34.668
1584599280.161,71.777,32.227,34.180,123.535,85.449
1584599280.165,12.695,25.391,32.715,26.367,57.617
1584599280.169,-11.719,19.531,26.855,-62.988,24.902
1584599280.173,32.227,27.344,25.391,11.719,42.480
1584599280.177,62.500,34.668,26.367,110.352,42.480
1584599280.181,27.832,27.344,24.902,61.035,84.961
1584599280.184,-6.348,20.996,25.391,-32.227,103.027
1584599280.188,20.508,28.320,29.785,-14.160,55.664
1584599280.192,57.129,32.227,32.715,97.168,45.410
1584599280.196,41.992,27.832,31.738,93.750,58.105
1584599280.200,-3.906,22.461,28.320,-31.738,50.293
1584599280.204,5.859,27.344,27.344,-41.016,52.734
1584599280.208,59.082,36.621,31.738,75.195,58.594
1584599280.212,54.688,35.156,32.715,109.375,46.387
1584599280.216,1.953,30.762,32.227,-1.465,-5.371
1584599280.220,-2.930,32.227,32.227,-59.570,20.508
1584599280.224,47.363,36.621,34.668,53.223,14.648
1584599280.227,63.477,34.180,38.086,126.953,11.230
1584599280.231,18.066,28.809,34.668,39.062,7.812
1584599280.235,-4.395,28.809,29.785,-47.363,-32.715
1584599280.239,42.480,33.203,30.273,10.742,20.020
1584599280.243,69.824,35.156,31.738,128.906,46.387
1584599280.247,27.832,29.785,30.273,79.102,6.836
1584599280.251,-9.766,27.344,27.832,-49.805,-11.230
1584599280.255,16.113,34.668,27.832,-25.391,20.996
1584599280.259,61.523,40.039,29.297,89.844,22.461
1584599280.263,49.316,40.527,28.809,88.867,-0.488
1584599280.267,3.418,36.621,25.879,-20.996,-23.438
1584599280.270,6.348,33.691,23.926,-44.434,0.000
1584599280.274,57.129,37.598,23.926,67.871,35.645
1584599280.278,62.500,37.598,26.855,114.258,-11.719
1584599280.282,11.719,31.250,28.320,14.160,41.504
1584599280.286,-4.883,28.320,22.949,-48.340,35.645
1584599280.290,41.016,30.762,25.879,29.297,39.062
1584599280.294,59.082,33.203,28.809,115.234,102.539
1584599280.298,12.207,28.809,27.344,43.945,42.480
1584599280.302,-18.066,22.461,26.367,-68.359,-5.371
1584599280.306,20.508,24.902,29.297,-11.230,-43.945
1584599280.309,54.688,32.227,33.203,98.633,-15.625
1584599280.313,24.902,31.250,32.715,70.801,57.129
1584599280.317,-23.438,23.926,29.297,-45.410,13.184
1584599280.321,5.371,25.391,27.832,-41.016,-19.043
1584599280.325,47.852,32.227,29.785,77.637,32.227
1584599280.329,27.832,28.320,28.809,97.656,67.383
1584599280.333,-18.555,19.531,24.902,-17.090,52.246
1584599280.337,-22.461,19.043,27.344,-66.895,18.066
1584599280.341,27.344,24.902,31.250,40.039,56.641
1584599280.345,39.551,25.391,31.250,103.516,47.852
1584599280.349,-10.254,19.531,29.785,14.648,61.523
1584599280.352,-26.855,20.020,26.855,-67.383,65.918
1584599280.356,25.391,26.855,30.762,13.184,49.316
1584599280.360,52.734,28.809,34.180,114.746,36.133
1584599280.364,15.625,22.949,30.762,43.945,42.969
1584599280.368,-21.973,20.996,32.227,-58.105,64.453
1584599280.372,12.695,28.320,31.738,-12.695,16.602
1584599280.376,56.152,32.715,33.203,95.215,19.043
1584599280.380,33.691,30.273,32.715,77.637,40.039
1584599280.384,-16.113,25.879,27.832,-38.086,13.672
1584599280.388,0.488,29.297,28.320,-39.551,13.184
1584599280.392,62.012,37.109,27.344,79.590,28.809
1584599280.395,49.316,35.156,24.414,105.957,43.945
1584599280.399,-16.602,27.832,22.461,-7.324,10.254
1584599280.403,-9.277,30.762,25.391,-56.641,3.906
1584599280.407,45.898,36.133,27.832,45.410,-27.344
1584599280.411,52.246,35.156,25.391,109.375,-18.555
1584599280.415,3.906,33.691,25.391,22.949,22.461
1584599280.419,-19.043,30.762,24.414,-38.574,18.066
1584599280.423,31.250,35.645,25.879,20.508,-19.043
1584599280.427,62.500,37.598,25.879,106.445,-10.254
1584599280.431,23.438,28.320,25.391,65.918,26.855
1584599280.434,-4.395,23.438,24.414,-42.969,20.508
1584599280.438,24.414,29.297,24.414,-16.602,26.367
1584599280.442,46.387,33.203,26.855,92.773,-8.301
1584599280.446,20.996,31.738,27.832,70.312,1.465
1584599280.450,-20.020,25.879,29.297,-41.992,26.855
1584599280.454,-14.648,23.438,29.785,-54.199,71.777
1584599280.458,26.855,28.320,30.273,50.293,85.938
1584599280.462,36.621,29.785,29.297,100.586,44.922
1584599280.466,-8.789,24.414,25.391,-5.859,50.293
1584599280.470,-20.020,25.879,24.902,-75.195,76.660
1584599280.474,34.180,33.691,28.320,26.855,86.914
1584599280.477,46.875,33.203,29.297,111.328,49.805
1584599280.481,6.836,29.297,29.785,41.016,64.453
1584599280.485,-18.555,26.855,28.320,-58.105,71.777
1584599280.489,21.484,29.785,27.832,0.977,29.297
1584599280.493,65.430,39.062,27.344,111.816,35.645
1584599280.497,29.785,36.621,24.902,55.176,31.250
1584599280.501,-20.020,27.832,24.902,-45.410,76.660
1584599280.505,20.020,30.762,30.762,-15.625,54.199
1584599280.509,60.547,37.109,33.691,87.402,32.227
1584599280.513,33.203,34.180,27.344,97.656,62.012
1584599280.517,-8.789,29.785,23.438,-14.648,55.176
1584599280.520,2.930,32.227,26.367,-60.059,52.246
1584599280.524,49.316,33.203,31.250,58.105,60.547
1584599280.528,44.922,33.203,32.227,112.305,62.012
1584599280.532,-2.441,27.344,29.297,9.766,66.895
1584599280.536,-9.277,20.996,30.273,-52.246,52.246
1584599280.540,31.738,27.344,34.668,27.832,-6.348
1584599280.544,49.316,28.320,37.109,121.094,56.152
1584599280.548,4.395,22.461,35.156,51.270,77.148
1584599280.552,-27.832,21.484,30.762,-55.664,18.555
1584599280.556,15.625,23.926,31.738,-11.719,40.527
1584599280.559,58.105,28.809,33.691,106.445,34.180
1584599280.563,24.902,30.273,31.250,82.031,-26.367
1584599280.567,-26.367,24.414,25.879,-54.688,5.371
1584599280.571,1.465,21.484,29.297,-43.457,30.273
1584599280.575,49.805,28.809,35.645,88.379,4.883
1584599280.579,40.039,31.250,32.227,94.238,43.457
1584599280.583,-12.695,24.414,29.785,-32.715,9.766
1584599280.587,-13.672,24.414,28.320,-60.547,-11.230
1584599280.591,38.574,30.273,28.320,43.945,28.320
1584599280.595,40.527,30.762,31.250,104.004,-11.230
1584599280.599,-5.371,23.926,32.715,18.555,-11.230
1584599280.602,-20.508,19.043,32.227,-60.547,21.484
1584599280.606,23.438,24.414,32.227,22.461,44.922
1584599280.610,49.316,28.809,33.691,112.305,77.637
1584599280.614,18.066,24.414,32.715,47.363,63.477
1584599280.618,-24.414,20.020,32.227,-58.105,17.578
1584599280.622,1.953,21.973,30.762,-28.320,7.812
1584599280.626,52.734,27.832,29.785,90.820,31.250
1584599280.630,30.762,24.414,30.273,75.195,24.414
1584599280.634,-23.926,16.602,27.832,-48.828,-31.250
1584599280.638,-7.324,20.508,28.809,-60.547,-40.527
1584599280.642,48.340,29.785,32.715,66.406,10.742
1584599280.645,37.109,25.879,32.715,108.887,-14.160
1584599280.649,-17.090,16.602,27.832,-20.996,-24.902
1584599280.653,-14.648,15.137,26.367,-74.707,-12.207
1584599280.657,36.621,22.461,30.273,41.992,-3.418
1584599280.661,51.270,22.949,29.785,105.957,19.043
1584599280.665,11.719,16.602,25.879,15.137,18.066
1584599280.669,-15.137,15.137,25.879,-71.289,48.828
1584599280.673,22.461,17.578,32.227,14.160,22.949
1584599280.677,50.781,21.484,31.250,110.352,-35.645
1584599280.681,27.344,21.973,24.414,45.898,8.789
1584599280.684,-11.719,21.973,23.438,-45.898,65.918
1584599280.688,5.859,24.414,25.879,-25.391,36.621
1584599280.692,56.641,26.855,26.855,83.008,24.902
1584599280.696,39.551,25.879,24.902,76.172,63.965
1584599280.700,-4.395,20.996,24.414,-31.250,0.977
1584599280.704,8.789,22.461,26.855,-45.898,-34.180
1584599280.708,62.988,33.203,29.297,66.895,40.039
1584599280.712,66.406,32.227,30.762,110.840,49.805
1584599280.716,22.949,26.367,28.809,18.555,5.371
1584599280.720,6.836,24.902,27.832,-42.969,28.320
1584599280.724,47.363,27.344,31.738,25.391,-13.672
1584599280.727,58.105,29.785,36.133,104.492,-17.578
1584599280.731,1.953,22.461,34.180,36.133,25.879
1584599280.735,-21.484,22.461,32.227,-60.547,-37.598
1584599280.739,25.879,33.691,33.203,-9.277,-57.617
1584599280.743,65.430,41.016,35.156,112.305,-20.508
1584599280.747,32.715,40.039,35.156,82.031,19.043
1584599280.751,-7.812,33.691,32.227,-32.227,85.449
1584599280.755,17.578,33.203,33.691,-20.508,62.012
1584599280.759,62.012,36.621,36.621,83.496,-13.184
1584599280.763,45.410,32.715,35.645,94.727,17.090
1584599280.767,-4.883,26.855,32.715,-14.160,45.898
1584599280.770,-3.418,25.391,32.227,-50.781,47.363
1584599280.774,48.340,30.762,34.668,61.523,37.109
1584599280.778,50.293,32.227,36.621,117.676,-13.184
1584599280.782,-8.789,25.391,31.738,4.395,-44.434
1584599280.786,-19.043,25.391,32.227,-68.848,-1.465
1584599280.790,31.250,31.250,37.109,40.527,27.344
1584599280.794,54.688,31.250,34.668,127.930,24.414
1584599280.798,11.230,21.484,33.203,33.691,25.879
1584599280.802,-20.020,12.695,36.133,-53.711,11.719
1584599280.806,36.621,18.066,43.457,17.090,41.016
1584599280.809,72.266,31.738,38.086,132.324,18.066
1584599280.813,14.160,34.180,24.902,65.918,47.852
1584599280.817,-23.926,27.832,18.555,-74.219,78.125
1584599280.821,-3.906,30.762,18.555,-55.664,53.711
1584599280.825,26.367,35.645,23.926,70.312,66.406
1584599280.829,26.855,34.180,25.391,85.938,33.203
1584599280.833,-22.949,28.809,22.461,-34.668,29.297
1584599280.837,-18.555,29.297,21.484,-69.824,55.176
1584599280.841,40.039,33.203,23.926,54.688,73.730
1584599280.845,46.387,30.762,27.344,116.211,46.387
1584599280.849,0.488,25.879,23.926,18.555,63.477
1584599280.852,-17.090,22.949,20.508,-62.500,9.766
1584599280.856,34.180,29.297,26.367,10.742,-12.207
1584599280.860,60.547,32.715,29.785,104.492,30.273
1584599280.864,1.465,25.879,29.297,40.527,22.949
1584599280.868,-37.109,23.926,28.809,-52.246,38.086
1584599280.872,6.348,29.297,29.297,-11.230,-3.906
1584599280.876,44.922,34.668,30.273,79.590,20.508
1584599280.880,19.531,33.203,30.273,68.359,38.574
1584599280.884,-21.973,28.320,28.320,-38.086,54.688
1584599280.888,-3.906,27.832,26.855,-38.086,51.758
1584599280.892,50.781,34.668,29.297,85.938,32.715
1584599280.895,43.945,36.621,30.273,107.422,52.246
1584599280.899,3.418,28.809,26.855,-6.836,52.734
1584599280.903,0.488,27.832,28.320,-57.129,46.387
