timestamps,TP9,AF7,AF8,TP10,Right AUX
1585002094.414,24.414,35.156,32.715,7.324,34.668
1585002094.418,11.230,36.621,33.203,-39.062,48.828
1585002094.422,16.113,26.855,22.949,27.832,48.828
1585002094.426,22.461,24.414,23.926,83.008,68.359
1585002094.430,22.949,31.738,33.691,41.016,24.902
1585002094.434,20.996,34.180,36.621,-32.227,29.297
1585002094.437,25.391,23.926,33.691,8.301,-0.977
1585002094.441,28.809,17.578,34.180,75.684,-21.484
1585002094.445,23.926,23.926,31.250,51.758,28.320
1585002094.449,19.531,33.691,33.691,-29.297,51.758
1585002094.453,19.531,29.785,31.250,-35.156,68.359
1585002094.457,15.625,20.020,21.484,45.410,18.555
1585002094.461,15.625,24.414,24.902,55.176,4.395
1585002094.465,11.230,35.645,37.109,-22.949,14.160
1585002094.469,12.695,31.738,36.621,-42.969,-0.977
1585002094.473,24.414,22.949,23.438,42.969,20.996
1585002094.477,30.762,26.367,24.414,83.008,48.340
1585002094.480,37.598,38.086,39.062,28.320,50.781
1585002094.484,26.367,37.109,43.457,-34.668,29.785
1585002094.488,10.254,22.461,29.297,-0.977,19.043
1585002094.492,13.184,20.508,23.438,60.547,22.949
1585002094.496,21.973,31.738,36.133,43.945,29.297
1585002094.500,14.160,37.598,40.527,-36.621,21.973
1585002094.504,5.371,24.414,28.809,-18.066,14.160
1585002094.508,19.531,19.043,25.879,71.777,30.762
1585002094.512,28.320,29.297,37.109,63.477,25.879
1585002094.516,13.672,35.156,43.945,-24.902,51.270
1585002094.519,13.672,28.320,34.180,-24.902,23.926
1585002094.523,29.297,18.066,27.832,66.406,13.672
1585002094.527,29.785,24.902,35.156,77.637,6.836
1585002094.531,14.648,41.504,40.039,-18.555,-12.695
1585002094.535,8.301,36.621,34.668,-59.570,-16.602
1585002094.539,18.066,22.461,24.414,29.297,20.020
1585002094.543,23.438,21.973,23.438,78.613,40.039
1585002094.547,22.949,31.738,32.227,19.531,-3.418
1585002094.551,18.066,34.180,34.668,-43.457,-17.578
1585002094.555,19.043,23.438,24.902,14.160,9.766
1585002094.559,34.668,21.484,25.391,90.332,37.598
1585002094.562,31.738,30.273,35.645,58.105,44.922
1585002094.566,18.555,34.180,41.504,-28.320,56.641
1585002094.570,15.137,24.902,33.691,-11.719,-10.254
1585002094.574,14.648,21.484,24.902,63.477,-14.160
1585002094.578,14.648,29.785,27.832,57.129,26.367
1585002094.582,18.555,41.016,36.621,-17.090,48.828
1585002094.586,20.020,35.156,34.668,-22.461,70.312
1585002094.590,17.090,20.020,27.344,47.852,72.266
1585002094.594,19.043,21.973,30.273,58.594,64.941
1585002094.598,17.578,31.738,39.551,-4.883,22.949
1585002094.602,13.672,30.273,38.086,-43.945,16.113
1585002094.605,27.832,21.484,29.785,26.367,37.109
1585002094.609,29.785,20.996,33.203,76.172,26.367
1585002094.613,11.230,33.203,38.086,11.230,13.672
1585002094.617,5.859,42.480,34.180,-69.824,-19.043
1585002094.621,13.184,32.227,23.926,-12.695,-20.996
1585002094.625,27.344,25.391,24.902,71.289,7.812
1585002094.629,20.508,29.785,35.156,41.992,27.832
1585002094.633,8.789,38.086,45.898,-34.180,56.152
1585002094.637,8.789,30.762,39.062,-22.461,10.742
1585002094.641,7.324,15.625,30.273,46.387,-26.855
1585002094.644,14.648,24.902,35.645,56.641,30.762
1585002094.648,19.531,38.086,41.992,-16.602,46.875
1585002094.652,12.695,34.668,35.645,-38.574,58.594
1585002094.656,12.207,24.902,25.879,46.875,80.566
1585002094.660,22.461,27.832,27.344,78.613,78.125
1585002094.664,21.973,39.551,38.574,3.906,46.875
1585002094.668,10.254,38.086,36.621,-54.199,22.949
1585002094.672,15.625,24.902,25.879,20.020,29.785
1585002094.676,29.297,20.020,32.227,97.168,31.738
1585002094.680,30.762,31.250,45.898,47.852,16.113
1585002094.684,4.395,41.504,39.062,-56.152,-3.906
1585002094.687,-8.301,32.715,21.484,-26.855,19.531
1585002094.691,19.043,26.367,22.461,59.570,51.758
1585002094.695,30.762,31.250,31.250,48.828,0.000
1585002094.699,17.090,37.109,39.551,-25.879,37.598
1585002094.703,13.672,30.762,34.180,-13.672,84.961
1585002094.707,19.531,20.020,25.391,67.871,1.465
1585002094.711,20.996,24.902,31.738,67.383,-17.090
1585002094.715,18.066,39.551,40.039,-18.066,-45.410
1585002094.719,12.207,38.086,35.645,-41.504,9.277
1585002094.723,21.484,26.367,27.344,44.434,46.875
1585002094.727,29.785,26.855,26.855,72.266,16.113
1585002094.730,12.695,36.133,32.227,0.000,61.035
1585002094.734,-0.977,40.527,34.180,-49.805,49.805
1585002094.738,10.254,31.738,24.902,14.648,-9.766
1585002094.742,23.438,27.344,22.461,80.078,-20.508
1585002094.746,22.949,36.133,35.156,42.480,6.348
1585002094.750,17.090,41.016,41.992,-44.434,28.320
1585002094.754,11.230,31.250,30.762,-17.090,58.594
1585002094.758,17.578,25.879,26.367,58.105,41.992
1585002094.762,20.996,33.691,33.691,47.363,-9.766
1585002094.766,24.902,39.551,42.480,-23.926,4.883
1585002094.769,29.297,31.250,37.598,-26.855,11.230
1585002094.773,16.113,23.438,21.484,42.480,7.324
1585002094.777,6.836,29.297,23.926,61.035,23.438
1585002094.781,18.555,41.016,39.551,0.977,-17.090
1585002094.785,20.508,41.016,37.598,-35.645,-22.949
1585002094.789,14.648,27.832,25.391,40.039,23.926
1585002094.793,21.484,21.973,27.344,82.520,38.086
1585002094.797,22.461,32.227,40.527,24.414,44.434
1585002094.801,13.184,34.668,42.480,-41.992,15.137
1585002094.805,14.648,25.391,28.809,5.371,14.648
1585002094.809,29.297,18.555,29.785,84.961,48.828
1585002094.812,32.715,22.461,41.504,54.688,49.805
1585002094.816,20.020,35.156,43.945,-41.504,44.922
1585002094.820,9.277,27.344,32.227,-24.414,20.020
1585002094.824,7.324,21.973,23.438,58.594,5.371
1585002094.828,8.789,34.180,26.367,48.340,34.180
1585002094.832,12.207,42.480,39.062,-28.809,46.875
1585002094.836,10.742,33.691,34.668,-33.203,42.480
1585002094.840,16.113,21.973,23.438,57.617,48.340
1585002094.844,23.926,24.414,31.738,83.496,32.227
1585002094.848,19.043,33.203,43.945,1.953,33.691
1585002094.852,14.648,33.691,41.016,-43.945,52.734
1585002094.855,13.672,24.902,28.809,33.691,24.902
1585002094.859,30.273,27.344,28.809,82.520,18.555
1585002094.863,25.879,37.598,35.645,12.207,46.875
1585002094.867,10.742,38.574,35.156,-63.965,47.852
1585002094.871,21.484,28.809,27.832,-2.441,12.695
1585002094.875,29.297,26.855,27.832,86.914,-14.648
1585002094.879,29.297,34.180,35.645,61.523,-5.859
1585002094.883,24.414,39.551,39.551,-35.156,25.391
1585002094.887,18.066,31.250,33.203,-25.879,22.461
1585002094.891,29.785,22.461,27.344,70.312,21.973
1585002094.894,46.875,27.832,36.133,83.984,19.531
1585002094.898,34.180,37.109,47.363,-4.395,64.941
1585002094.902,16.113,36.133,39.551,-37.109,84.473
1585002094.906,24.414,25.879,27.344,42.969,40.527
1585002094.910,33.203,27.344,31.250,75.195,32.227
1585002094.914,29.785,38.574,42.480,10.254,5.859
1585002094.918,21.484,37.598,42.480,-40.527,10.254
1585002094.922,12.207,21.973,29.785,24.902,4.883
1585002094.926,21.484,17.090,28.809,79.590,-3.906
1585002094.930,25.391,30.273,36.133,27.344,40.527
1585002094.934,10.742,39.062,36.621,-54.199,27.344
1585002094.937,8.789,28.809,26.367,-13.672,18.555
1585002094.941,20.508,22.461,24.414,71.777,51.270
1585002094.945,19.043,27.832,39.062,55.664,-27.832
1585002094.949,10.742,35.156,47.363,-28.809,-46.387
1585002094.953,6.348,28.809,34.180,-26.367,38.086
1585002094.957,14.648,23.438,20.508,53.711,42.969
1585002094.961,16.602,32.227,24.902,55.664,-12.695
1585002094.965,12.695,40.039,36.133,-26.855,12.695
1585002094.969,8.789,33.691,32.715,-46.875,22.949
1585002094.973,18.555,21.973,20.020,42.969,-6.348
1585002094.977,36.621,23.438,22.949,80.566,65.918
1585002094.980,24.902,32.227,34.668,11.230,112.305
1585002094.984,1.953,30.273,35.645,-52.734,111.816
1585002094.988,7.324,18.555,23.926,4.883,124.512
1585002094.992,16.113,19.531,19.531,69.824,40.039
1585002094.996,13.672,30.273,26.855,25.391,0.000
1585002095.000,17.090,35.645,31.738,-55.664,15.137
1585002095.004,21.484,26.855,23.926,-4.883,3.906
1585002095.008,29.785,23.438,21.484,82.520,33.691
1585002095.012,25.879,34.668,27.832,46.387,71.289
1585002095.016,24.902,41.504,31.250,-51.270,90.820
1585002095.019,18.555,34.668,25.391,-48.828,53.223
1585002095.023,7.812,23.438,19.531,50.293,25.879
1585002095.027,12.695,26.367,28.809,69.824,10.254
1585002095.031,8.301,40.039,36.621,-15.137,-14.160
1585002095.035,1.953,41.016,31.250,-50.781,13.184
1585002095.039,16.113,29.297,24.414,29.297,8.301
1585002095.043,23.926,29.297,29.785,76.660,-21.973
1585002095.047,10.254,37.598,41.504,16.602,2.441
1585002095.051,13.184,39.062,44.922,-40.039,5.371
1585002095.055,20.020,32.227,36.133,21.973,41.504
1585002095.059,24.414,26.367,31.250,83.984,55.176
1585002095.062,29.297,33.203,41.992,48.340,19.043
1585002095.066,29.297,39.551,48.340,-34.668,36.621
1585002095.070,19.043,31.738,34.668,-15.625,30.762
1585002095.074,22.461,26.855,25.391,69.336,40.039
1585002095.078,27.832,31.738,33.203,60.059,28.809
1585002095.082,20.508,38.574,42.480,-30.273,-13.672
1585002095.086,22.949,31.738,41.016,-27.344,2.441
1585002095.090,39.551,20.020,36.133,74.707,28.809
1585002095.094,34.668,25.391,33.203,74.707,46.387
1585002095.098,18.555,38.574,39.062,-16.113,4.395
1585002095.102,9.277,37.109,38.574,-52.246,25.391
1585002095.105,12.207,24.414,25.391,21.484,5.859
1585002095.109,33.691,25.879,31.738,92.773,-25.879
1585002095.113,44.922,36.133,47.852,45.898,51.758
1585002095.117,30.273,37.109,47.852,-43.945,96.680
1585002095.121,9.277,28.809,35.645,-2.930,59.082
1585002095.125,6.836,26.855,27.832,69.824,-27.344
1585002095.129,15.137,33.691,35.156,51.270,-41.504
1585002095.133,22.461,38.574,43.457,-31.738,69.824
1585002095.137,26.855,29.297,34.668,-20.996,61.035
1585002095.141,29.785,19.043,26.855,71.777,-42.969
1585002095.144,17.090,25.879,34.668,69.824,-43.945
1585002095.148,6.348,34.668,40.527,-24.902,2.930
1585002095.152,0.977,28.320,33.203,-41.504,43.945
1585002095.156,12.207,21.484,27.344,53.223,21.484
1585002095.160,31.250,25.879,27.344,81.055,16.602
1585002095.164,33.203,39.551,37.109,6.836,64.941
1585002095.168,35.645,38.574,41.016,-33.691,83.008
1585002095.172,24.414,23.438,31.250,41.504,68.848
1585002095.176,9.277,16.113,31.250,92.285,10.742
1585002095.180,16.602,21.973,40.039,36.133,-7.812
1585002095.184,25.391,34.180,41.504,-31.250,23.926
1585002095.187,18.066,29.785,32.227,12.207,12.695
1585002095.191,21.973,24.414,27.344,69.824,7.324
1585002095.195,27.832,32.227,30.273,44.922,14.160
1585002095.199,20.020,38.574,38.086,-38.574,0.000
1585002095.203,11.719,30.273,32.715,-35.156,27.344
1585002095.207,10.254,19.531,23.926,57.129,77.148
1585002095.211,32.715,27.832,29.785,77.148,33.203
1585002095.215,32.715,41.504,40.527,2.441,-18.066
1585002095.219,5.859,33.691,37.109,-31.738,-7.324
1585002095.223,14.648,20.020,25.391,38.574,17.578
1585002095.227,40.039,22.949,31.738,86.426,27.344
1585002095.230,31.738,32.715,45.898,29.297,37.598
1585002095.234,16.113,36.133,43.945,-42.480,32.227
1585002095.238,20.508,28.809,26.855,6.836,42.480
1585002095.242,25.391,24.414,24.414,72.754,29.785
1585002095.246,29.297,33.691,41.992,45.410,-8.301
1585002095.250,35.645,40.039,48.828,-34.668,26.367
1585002095.254,17.578,29.785,35.645,-7.324,-2.930
1585002095.258,45.410,22.461,31.738,84.961,-9.277
1585002095.262,60.547,30.762,41.992,77.148,29.297
1585002095.266,22.949,37.598,46.387,-25.879,3.906
1585002095.269,2.441,30.762,35.156,-40.039,25.391
1585002095.273,17.090,22.461,26.855,59.082,64.453
1585002095.277,55.664,28.320,34.180,84.961,36.133
1585002095.281,47.363,37.109,42.969,0.488,21.973
1585002095.285,24.414,28.809,39.551,-34.180,39.062
1585002095.289,28.809,14.648,31.738,44.922,89.355
1585002095.293,18.066,18.555,34.668,81.543,74.707
1585002095.297,22.949,29.297,47.363,25.391,63.965
1585002095.301,24.902,28.320,47.363,-26.367,75.684
1585002095.305,20.020,19.043,33.203,37.598,62.500
1585002095.309,20.508,16.602,29.785,83.984,40.039
1585002095.312,7.812,23.926,40.527,27.344,54.688
1585002095.316,5.859,29.785,42.969,-52.734,62.500
1585002095.320,20.996,21.973,30.762,-7.812,32.227
1585002095.324,38.574,16.113,26.855,94.238,15.625
1585002095.328,52.246,26.367,36.133,84.961,45.898
1585002095.332,39.551,34.180,44.434,-3.906,73.730
1585002095.336,27.832,22.949,41.992,-17.578,60.547
1585002095.340,40.527,13.184,30.273,62.500,-8.301
1585002095.344,28.320,18.555,28.809,83.496,2.930
1585002095.348,10.254,31.250,35.645,-5.371,-12.695
1585002095.352,12.207,30.762,29.297,-53.711,-9.277
1585002095.355,12.695,20.020,19.043,21.484,14.160
1585002095.359,20.996,21.484,25.391,79.590,-26.367
1585002095.363,35.156,34.180,37.109,33.203,-44.922
1585002095.367,31.738,39.062,41.504,-35.156,-8.789
1585002095.371,33.691,24.902,34.180,20.996,49.805
1585002095.375,35.645,18.066,29.785,88.867,46.387
1585002095.379,43.945,28.809,40.039,69.824,10.254
1585002095.383,50.781,37.109,49.316,-17.090,1.953
1585002095.387,29.785,27.832,39.551,-16.602,-0.488
1585002095.391,26.855,15.625,27.832,68.359,-11.230
1585002095.394,41.504,17.090,36.621,76.172,57.129
1585002095.398,21.973,24.902,48.340,-9.766,87.891
1585002095.402,7.812,21.484,42.969,-40.527,27.344
1585002095.406,7.324,14.160,27.344,41.992,34.668
1585002095.410,20.020,21.973,28.809,80.078,67.383
1585002095.414,34.180,30.762,45.898,16.602,35.156
1585002095.418,31.738,28.320,47.852,-34.668,-26.855
1585002095.422,19.043,18.066,35.156,33.203,-35.156
1585002095.426,10.254,19.531,32.227,84.473,8.789
1585002095.430,11.719,32.227,44.922,26.367,67.383
1585002095.434,13.672,32.227,49.316,-50.293,0.000
1585002095.437,12.207,21.973,35.156,0.977,-25.879
1585002095.441,29.297,19.043,32.715,82.520,40.039
1585002095.445,36.133,28.809,44.434,55.664,64.453
1585002095.449,24.902,38.086,51.270,-24.902,77.637
1585002095.453,18.066,28.809,42.969,-3.418,23.438
1585002095.457,19.531,19.531,36.621,80.078,-3.906
1585002095.461,26.855,26.367,43.457,74.707,6.348
1585002095.465,31.738,36.133,50.293,-11.719,9.766
1585002095.469,17.090,30.273,44.434,-38.086,3.418
1585002095.473,16.113,20.020,36.621,55.664,-9.277
1585002095.477,37.598,23.926,37.598,91.797,-23.926
1585002095.480,35.645,33.203,45.410,9.277,-2.441
1585002095.484,20.508,33.691,47.852,-45.410,32.715
1585002095.488,17.578,27.832,33.203,24.414,19.531
1585002095.492,29.297,28.320,30.762,78.613,-0.977
1585002095.496,38.574,33.691,40.527,31.250,11.719
1585002095.500,14.160,36.133,47.363,-48.828,53.711
1585002095.504,-0.977,25.391,40.527,-7.324,49.805
1585002095.508,25.879,21.973,35.645,81.543,-24.902
1585002095.512,33.691,30.273,43.945,62.988,-4.883
1585002095.516,18.555,38.086,49.316,-21.484,3.418
1585002095.519,14.648,31.250,41.016,-23.926,-9.277
1585002095.523,32.227,19.531,30.762,62.500,34.668
1585002095.527,31.250,24.902,35.156,78.613,43.457
1585002095.531,25.391,39.062,46.875,-2.930,45.410
1585002095.535,36.133,38.086,45.898,-32.227,20.996
1585002095.539,37.598,28.809,33.203,55.664,37.598
1585002095.543,48.828,27.344,36.133,102.539,69.824
1585002095.547,42.969,36.133,51.270,30.762,2.441
1585002095.551,13.184,35.156,45.898,-45.898,-31.738
1585002095.555,9.277,23.438,28.320,12.207,-10.254
1585002095.559,42.480,20.996,27.344,99.121,73.730
1585002095.562,58.594,30.762,39.062,73.730,58.594
1585002095.566,32.227,37.598,45.410,-30.273,13.672
1585002095.570,14.648,21.973,33.691,-13.672,25.391
1585002095.574,30.273,10.254,29.785,79.102,2.441
1585002095.578,34.180,15.137,43.945,68.359,10.254
1585002095.582,22.461,25.391,54.688,-22.949,49.316
1585002095.586,27.832,28.809,42.969,-29.297,27.832
1585002095.590,31.738,22.461,33.691,62.012,44.434
1585002095.594,33.691,24.414,41.992,82.031,78.125
1585002095.598,30.273,36.133,46.875,9.277,45.898
1585002095.602,31.738,36.133,40.039,-25.879,55.664
1585002095.605,34.180,23.438,32.715,54.688,41.016
1585002095.609,42.969,24.902,37.109,94.238,-2.930
1585002095.613,35.645,35.156,42.480,11.719,17.578
1585002095.617,17.578,37.109,40.039,-55.664,18.555
1585002095.621,22.949,30.273,32.227,20.020,44.922
1585002095.625,34.668,21.484,31.738,101.074,19.531
1585002095.629,46.875,23.926,42.969,71.777,7.324
1585002095.633,37.109,33.691,50.781,-18.066,8.301
1585002095.637,9.766,29.297,39.062,-16.113,18.066
1585002095.641,9.766,23.438,26.367,63.477,58.105
1585002095.644,18.066,30.273,33.203,67.383,44.922
1585002095.648,25.879,36.133,43.945,-8.789,45.410
1585002095.652,35.645,34.180,39.551,-9.766,61.523
1585002095.656,40.039,22.949,29.297,69.824,30.762
1585002095.660,26.367,19.531,27.832,73.730,-11.719
1585002095.664,20.508,32.227,37.598,-0.977,-15.625
1585002095.668,22.461,33.203,35.156,-44.922,-2.441
1585002095.672,17.578,19.531,22.949,26.855,-12.695
1585002095.676,26.367,16.113,26.367,83.984,-8.789
1585002095.680,31.250,26.855,35.645,30.273,-0.977
1585002095.684,22.949,34.180,39.062,-37.598,-2.441
1585002095.687,25.879,26.855,27.832,18.555,-28.809
1585002095.691,38.574,18.066,22.461,90.332,15.137
1585002095.695,33.203,23.926,34.180,55.664,70.801
1585002095.699,19.531,36.621,41.992,-34.180,40.039
1585002095.703,17.578,30.762,34.180,-28.320,36.133
1585002095.707,32.227,22.461,27.344,65.918,16.113
1585002095.711,37.598,28.320,34.180,81.055,-3.418
1585002095.715,36.621,38.574,44.434,-6.836,-18.066
1585002095.719,27.344,35.156,38.574,-41.504,-32.227
1585002095.723,27.832,20.996,28.320,45.898,0.488
1585002095.727,46.387,24.414,34.668,91.309,-17.090
1585002095.730,38.574,37.598,45.898,20.020,-8.301
1585002095.734,14.160,32.227,43.945,-43.457,62.500
1585002095.738,10.254,18.555,30.762,32.715,60.547
1585002095.742,32.227,18.066,32.227,112.305,-15.137
1585002095.746,39.062,27.344,41.504,52.734,13.672
1585002095.750,18.066,34.180,37.109,-50.293,56.152
1585002095.754,19.043,26.855,23.438,-12.207,0.977
1585002095.758,46.387,20.996,24.414,85.449,18.066
1585002095.762,49.805,28.809,39.062,81.055,42.480
1585002095.766,25.879,35.156,43.457,-19.531,21.973
1585002095.769,7.324,30.273,31.250,-28.809,13.184
1585002095.773,16.113,21.484,22.949,66.895,52.246
1585002095.777,32.715,23.926,28.320,76.172,72.754
1585002095.781,21.973,33.691,38.086,-9.766,48.828
1585002095.785,16.602,34.180,32.715,-44.434,78.613
1585002095.789,9.277,24.414,20.020,35.156,75.684
1585002095.793,12.207,23.438,23.926,81.543,56.641
1585002095.797,30.762,33.691,37.109,22.949,30.273
1585002095.801,28.809,37.598,36.133,-41.504,-1.465
1585002095.805,27.832,31.250,25.391,30.762,20.996
1585002095.809,33.691,23.438,23.926,98.145,14.160
1585002095.812,22.949,22.461,32.715,41.504,-9.766
1585002095.816,26.855,27.344,39.062,-44.434,37.109
1585002095.820,29.785,22.461,29.785,-6.836,59.570
1585002095.824,17.578,18.555,24.902,85.449,39.551
1585002095.828,22.461,25.391,32.227,71.777,69.336
1585002095.832,19.531,30.762,36.621,-30.273,73.730
1585002095.836,12.207,23.926,27.344,-40.039,24.902
1585002095.840,29.785,18.555,21.484,65.430,46.875
1585002095.844,41.016,26.855,30.273,89.355,43.457
1585002095.848,23.438,36.621,40.527,1.465,22.949
1585002095.852,24.414,34.668,37.598,-49.316,17.578
1585002095.855,28.320,26.367,23.926,35.156,41.992
1585002095.859,34.668,28.320,25.879,104.492,37.598
1585002095.863,38.086,37.109,40.039,48.340,9.277
1585002095.867,24.414,39.062,41.016,-26.855,17.090
1585002095.871,26.855,27.344,28.809,24.414,67.383
1585002095.875,39.551,20.996,26.855,100.586,70.312
1585002095.879,37.109,32.715,39.062,63.965,73.730
1585002095.883,21.484,40.527,45.898,-34.668,32.715
1585002095.887,12.207,28.809,31.738,-11.230,31.250
1585002095.891,23.926,18.555,25.391,82.520,57.617
1585002095.894,33.691,26.855,38.086,74.707,50.293
1585002095.898,32.715,40.527,42.480,-23.438,-4.395
1585002095.902,20.996,34.668,30.762,-39.551,-15.137
1585002095.906,17.578,21.973,21.484,56.641,46.875
1585002095.910,35.645,26.855,29.785,91.309,32.715
1585002095.914,36.133,39.551,40.527,19.531,20.996
1585002095.918,12.695,39.062,35.645,-36.621,14.648
1585002095.922,17.578,24.902,26.855,35.645,27.344
1585002095.926,20.020,17.578,32.227,89.844,-13.184
1585002095.930,8.789,26.367,37.598,20.508,-10.742
1585002095.934,16.602,35.156,36.621,-51.758,37.109
1585002095.937,22.949,25.391,27.832,8.789,-30.762
1585002095.941,31.738,15.625,20.996,76.172,-59.570
1585002095.945,32.715,20.020,25.879,49.316,12.207
1585002095.949,27.344,28.809,38.574,-19.043,21.973
1585002095.953,20.508,20.996,32.715,-9.277,-17.090
1585002095.957,16.602,12.207,23.438,68.359,27.832
1585002095.961,13.184,20.020,31.250,68.848,45.898
1585002095.965,24.902,30.762,45.410,-8.301,-2.441
1585002095.969,24.902,24.414,41.016,-25.391,1.465
1585002095.973,23.926,16.602,22.461,46.875,13.672
1585002095.977,36.133,22.949,26.367,82.520,33.691
1585002095.980,21.973,31.738,39.062,14.160,93.262
1585002095.984,21.973,33.203,38.086,-41.504,76.660
1585002095.988,25.879,20.020,27.832,27.344,63.477
1585002095.992,38.086,15.625,28.320,86.914,60.547
1585002095.996,40.039,31.250,38.086,37.109,-11.230
1585002096.000,27.832,35.645,41.992,-42.969,26.367
1585002096.004,28.809,20.020,34.180,4.395,87.891
1585002096.008,33.203,12.207,29.785,92.285,72.754
1585002096.012,32.227,25.879,35.645,61.035,20.508
1585002096.016,25.391,36.621,39.062,-40.039,17.578
1585002096.019,23.438,28.809,29.785,-24.902,41.504
1585002096.023,33.691,19.043,20.996,78.613,46.387
1585002096.027,42.480,26.367,31.250,96.191,56.641
1585002096.031,40.039,36.621,46.387,2.441,34.180
1585002096.035,13.672,27.832,40.527,-42.969,0.000
1585002096.039,15.625,15.625,29.297,55.176,4.395
1585002096.043,41.016,20.020,30.762,106.934,-40.039
1585002096.047,45.410,33.203,39.062,30.762,-24.902
1585002096.051,28.809,36.133,39.062,-30.762,29.297
1585002096.055,17.578,23.926,27.344,36.621,25.879
1585002096.059,25.391,21.484,26.367,100.586,-19.043
1585002096.062,33.203,31.250,40.039,49.805,-55.176
1585002096.066,35.156,35.156,47.363,-38.086,-11.230
1585002096.070,26.855,23.438,37.109,3.906,8.789
1585002096.074,38.086,18.555,32.715,96.680,46.875
1585002096.078,46.387,29.785,39.062,70.312,31.250
1585002096.082,20.020,37.598,41.016,-32.715,0.488
1585002096.086,21.484,32.227,34.668,-29.785,31.738
1585002096.090,41.016,23.438,29.785,65.430,36.621
1585002096.094,39.062,26.855,30.273,80.566,21.973
1585002096.098,31.738,36.621,40.039,4.395,34.180
1585002096.102,26.855,33.203,45.410,-23.926,2.441
1585002096.105,31.250,22.461,32.715,53.711,-39.062
1585002096.109,38.086,21.484,30.273,103.516,30.762
1585002096.113,36.133,32.227,40.527,43.457,48.340
1585002096.117,23.926,37.109,43.945,-29.297,33.203
1585002096.121,29.785,24.414,33.691,24.902,61.035
1585002096.125,33.203,17.578,29.785,83.496,73.242
1585002096.129,30.762,25.391,39.551,50.293,-27.344
1585002096.133,21.484,36.133,43.945,-32.715,-23.926
1585002096.137,4.883,29.297,32.227,-19.043,65.918
1585002096.141,19.043,16.602,24.414,74.219,35.156
1585002096.144,30.762,22.949,33.203,76.660,19.531
1585002096.148,29.785,33.203,45.410,-14.160,72.754
1585002096.152,20.996,29.297,41.016,-29.785,56.641
1585002096.156,18.555,21.484,26.855,51.270,8.789
1585002096.160,26.855,24.902,31.738,80.566,28.320
1585002096.164,25.391,33.691,44.922,5.371,12.695
1585002096.168,25.391,34.180,44.434,-36.621,9.766
1585002096.172,33.691,24.902,35.156,41.992,18.555
1585002096.176,28.320,20.996,33.203,91.797,38.086
1585002096.180,20.020,33.203,42.969,28.320,2.930
1585002096.184,12.695,36.133,43.457,-58.105,13.184
1585002096.187,7.324,21.973,28.320,3.418,80.078
1585002096.191,30.273,21.973,26.367,98.145,56.152
1585002096.195,48.340,32.715,40.527,68.848,29.297
1585002096.199,31.738,40.039,45.410,-32.715,42.969
1585002096.203,18.555,32.227,29.785,-21.973,-15.625
1585002096.207,27.344,21.973,22.461,83.496,13.672
1585002096.211,46.387,32.227,34.180,98.145,44.434
1585002096.215,49.316,41.504,46.875,3.418,31.738
1585002096.219,37.109,33.691,37.598,-38.574,52.734
1585002096.223,25.391,23.438,24.414,49.316,56.641
1585002096.227,31.738,25.391,32.227,86.914,57.129
1585002096.230,30.273,37.598,41.992,15.137,79.102
1585002096.234,11.719,37.109,40.039,-24.902,61.523
1585002096.238,25.879,24.414,31.250,47.852,29.785
1585002096.242,42.480,21.484,30.273,104.004,19.043
1585002096.246,45.898,30.762,41.992,52.246,11.719
1585002096.250,40.039,37.109,45.898,-28.320,16.113
1585002096.254,20.996,30.762,30.273,9.766,18.555
1585002096.258,20.508,24.414,20.020,75.195,50.293
1585002096.262,35.645,32.227,30.762,47.363,35.645
1585002096.266,26.367,40.039,40.527,-33.203,56.641
1585002096.269,30.762,35.645,34.180,-14.648,35.156
1585002096.273,41.504,25.391,24.902,79.590,11.719
1585002096.277,29.785,24.902,29.297,91.797,-9.277
1585002096.281,28.320,35.645,42.969,-1.953,-16.602
1585002096.285,20.508,33.203,40.039,-42.969,29.785
1585002096.289,20.508,22.949,28.809,44.434,75.195
1585002096.293,37.598,25.391,33.691,96.680,62.500
1585002096.297,42.969,36.621,44.434,25.879,37.109
1585002096.301,28.320,38.086,42.969,-47.852,24.414
1585002096.305,15.625,24.902,33.203,15.137,21.484
1585002096.309,14.648,17.578,35.156,85.938,65.918
1585002096.312,23.926,26.367,50.293,52.734,46.875
1585002096.316,32.227,31.250,57.129,-20.020,-17.090
1585002096.320,23.926,23.438,38.086,0.000,-70.801
1585002096.324,12.695,22.461,23.438,63.965,-76.660
1585002096.328,9.766,31.738,34.180,52.734,-7.812
1585002096.332,8.301,38.574,43.457,-32.227,19.531
1585002096.336,10.254,29.297,37.598,-28.809,-5.371
1585002096.340,31.250,20.508,30.273,73.730,25.391
1585002096.344,31.250,29.785,31.250,80.078,20.508
1585002096.348,18.066,41.504,41.504,-3.906,0.488
1585002096.352,12.695,37.109,39.551,-38.574,38.574
1585002096.355,20.020,23.438,29.785,39.551,33.203
1585002096.359,30.762,19.531,33.691,85.449,29.297
1585002096.363,23.438,28.320,42.480,13.184,42.969
1585002096.367,22.461,31.738,41.504,-47.852,55.176
1585002096.371,32.227,24.902,34.180,27.832,29.297
1585002096.375,40.527,19.043,33.203,96.680,4.395
1585002096.379,42.969,27.344,41.504,47.852,22.461
1585002096.383,20.020,38.086,44.922,-47.363,18.066
1585002096.387,12.695,30.762,36.621,-18.066,-15.137
1585002096.391,39.551,21.973,31.738,83.008,-15.137
1585002096.394,31.738,26.855,36.133,79.102,17.090
1585002096.398,15.625,37.598,46.387,-12.695,19.531
1585002096.402,16.113,33.203,41.016,-28.320,27.344
1585002096.406,19.043,20.996,22.949,50.781,49.316
1585002096.410,27.344,22.461,25.391,74.219,79.590
1585002096.414,34.180,30.762,40.039,7.324,60.547
1585002096.418,27.344,25.879,41.016,-30.762,38.086
1585002096.422,27.344,18.555,29.785,39.551,10.254
1585002096.426,26.855,21.484,22.461,82.520,-6.836
1585002096.430,24.902,32.227,31.738,32.227,-4.883
1585002096.434,22.461,36.133,35.645,-42.480,-22.949
1585002096.437,19.043,25.391,23.438,9.277,42.480
1585002096.441,42.480,19.531,22.461,100.098,23.926
1585002096.445,46.387,27.832,31.738,68.848,0.488
1585002096.449,11.230,37.109,37.109,-37.109,5.859
1585002096.453,3.906,25.879,27.344,-32.715,32.227
1585002096.457,16.113,16.602,20.020,63.477,40.039
1585002096.461,24.902,24.414,30.273,68.359,-4.883
1585002096.465,25.391,30.273,42.480,-24.414,8.789
1585002096.469,17.578,24.414,38.086,-41.992,19.043
1585002096.473,23.926,18.066,26.855,61.035,-18.066
1585002096.477,33.203,21.484,29.297,92.285,19.531
1585002096.480,28.809,31.738,42.480,12.695,49.316
1585002096.484,20.020,28.320,43.945,-32.227,10.254
1585002096.488,26.855,13.184,34.180,49.316,1.465
1585002096.492,44.922,14.648,31.738,104.980,14.648
1585002096.496,35.645,28.320,38.086,37.109,19.043
1585002096.500,9.766,34.668,39.551,-53.711,-4.883
1585002096.504,8.789,23.438,28.809,-10.742,26.367
1585002096.508,17.090,18.066,24.414,75.684,120.605
1585002096.512,19.043,27.832,34.180,51.270,125.488
1585002096.516,22.949,37.109,40.527,-36.133,51.758
1585002096.519,28.809,33.203,32.715,-15.625,32.227
1585002096.523,33.691,23.438,26.855,74.219,33.691
1585002096.527,25.391,28.320,35.645,84.473,46.387
1585002096.531,15.625,36.133,48.828,2.441,46.875
1585002096.535,16.113,30.273,44.434,-37.598,25.879
1585002096.539,22.461,20.508,33.691,47.852,50.781
1585002096.543,42.480,22.949,36.133,96.191,30.762
1585002096.547,51.270,35.156,47.852,27.344,38.574
1585002096.551,19.043,34.180,47.363,-41.504,16.113
1585002096.555,3.418,20.996,34.180,19.531,17.090
1585002096.559,16.113,15.137,33.203,82.031,5.371
1585002096.562,21.484,21.973,43.457,40.039,-47.363
1585002096.566,21.973,30.273,49.805,-39.062,23.438
1585002096.570,17.090,20.020,38.574,-2.441,50.781
1585002096.574,19.043,12.695,32.227,88.379,32.227
1585002096.578,22.461,24.414,40.527,75.684,36.133
1585002096.582,17.578,37.598,49.805,-20.996,34.668
1585002096.586,16.602,26.367,40.039,-33.203,-22.461
1585002096.590,18.066,13.184,30.762,67.383,-33.203
1585002096.594,26.367,20.020,39.062,87.891,37.598
1585002096.598,26.367,29.297,48.828,-10.742,21.973
1585002096.602,11.230,27.344,45.898,-47.852,51.270
1585002096.605,8.789,16.602,33.203,34.668,88.867
1585002096.609,20.508,18.066,34.668,83.984,37.598
1585002096.613,20.020,28.320,44.434,21.484,31.250
1585002096.617,18.066,31.738,45.410,-54.199,43.457
1585002096.621,11.719,23.438,30.762,3.906,79.590
1585002096.625,12.695,22.461,28.320,82.520,90.332
1585002096.629,24.902,32.227,40.039,52.246,37.598
1585002096.633,20.020,41.016,43.457,-39.551,43.457
1585002096.637,-0.977,31.738,33.691,-25.879,0.000
1585002096.641,2.930,20.508,27.832,52.246,17.090
1585002096.644,16.602,27.832,39.062,47.852,40.039
1585002096.648,17.090,37.598,47.852,-42.480,16.602
1585002096.652,11.230,28.320,37.598,-48.340,64.941
1585002096.656,19.531,19.043,30.762,61.523,80.566
1585002096.660,30.273,25.391,37.598,87.891,56.641
1585002096.664,21.973,38.574,48.340,-6.836,60.547
1585002096.668,7.324,38.086,45.898,-57.617,47.852
1585002096.672,7.812,27.344,34.180,31.250,-5.859
1585002096.676,20.020,29.297,35.645,82.520,21.973
1585002096.680,12.695,39.062,43.457,10.254,23.438
1585002096.684,-3.906,39.551,45.898,-67.871,-10.742
1585002096.687,0.000,26.367,39.062,-10.254,-54.199
1585002096.691,26.367,20.020,38.086,70.801,-79.590
1585002096.695,22.461,26.855,46.875,47.852,-40.039
1585002096.699,10.742,37.598,54.688,-32.715,3.418
1585002096.703,8.301,33.203,46.875,-13.672,54.688
1585002096.707,3.906,22.949,38.086,70.801,69.336
1585002096.711,2.441,27.344,41.992,54.688,43.945
1585002096.715,-1.953,40.039,48.340,-33.691,52.734
1585002096.719,11.719,39.062,43.457,-40.039,35.645
1585002096.723,25.879,30.273,32.715,51.270,52.246
1585002096.727,25.391,34.180,36.133,77.148,26.367
1585002096.730,18.066,42.480,49.805,0.488,-27.832
1585002096.734,9.277,39.551,50.293,-52.734,15.625
1585002096.738,9.766,24.414,38.574,18.555,71.289
1585002096.742,11.719,19.043,35.645,76.660,64.453
1585002096.746,23.926,30.273,42.969,30.762,31.738
1585002096.750,22.461,36.621,45.898,-41.992,55.664
1585002096.754,12.207,28.320,35.645,-3.906,59.082
1585002096.758,28.320,22.461,30.762,72.754,-1.465
1585002096.762,22.461,32.227,40.527,51.758,32.715
1585002096.766,17.090,38.086,48.828,-34.180,34.668
1585002096.769,22.949,30.273,40.039,-23.438,-85.449
1585002096.773,31.738,25.391,29.785,62.012,-65.918
1585002096.777,26.367,31.250,32.715,66.406,12.695
1585002096.781,9.277,39.551,41.992,-27.344,57.617
1585002096.785,-0.488,31.738,39.062,-59.082,94.238
1585002096.789,3.906,20.020,31.250,42.480,41.992
1585002096.793,16.602,24.414,35.645,83.496,24.902
1585002096.797,12.695,37.109,45.410,2.441,83.984
1585002096.801,4.883,38.086,43.945,-58.594,99.609
1585002096.805,-1.465,26.855,33.203,8.301,35.645
1585002096.809,11.230,23.438,31.250,73.730,-12.207
1585002096.812,29.785,33.203,43.457,28.809,-6.348
1585002096.816,17.090,39.062,49.316,-47.363,11.719
1585002096.820,13.184,31.250,36.621,-1.953,48.340
1585002096.824,25.879,27.832,32.715,87.402,50.293
1585002096.828,20.508,32.227,41.504,63.965,61.035
1585002096.832,15.137,40.527,49.805,-39.551,38.574
1585002096.836,8.789,36.133,43.457,-34.180,18.555
1585002096.840,21.973,25.879,31.738,63.477,70.801
1585002096.844,38.086,30.273,36.621,83.008,62.012
1585002096.848,16.602,38.574,48.340,-1.953,33.203
1585002096.852,7.324,37.598,43.945,-43.945,52.734
1585002096.855,21.973,28.320,31.250,40.527,11.719
1585002096.859,22.461,24.414,33.203,78.613,-86.426
1585002096.863,23.926,31.250,48.340,9.766,-18.555
1585002096.867,19.531,35.156,51.270,-48.340,45.898
1585002096.871,20.996,27.344,39.551,24.414,-6.836
1585002096.875,39.062,25.391,37.109,101.074,24.902
1585002096.879,29.297,32.715,47.852,50.293,43.457
1585002096.883,17.578,38.086,53.711,-44.434,25.879
1585002096.887,14.160,29.297,41.992,-12.695,3.418
1585002096.891,26.367,19.531,33.203,68.848,-12.207
1585002096.894,32.715,29.785,40.527,67.383,37.109
1585002096.898,21.973,39.551,52.246,-19.531,33.691
1585002096.902,14.648,30.273,45.410,-29.785,30.273
1585002096.906,23.926,18.555,27.832,58.594,3.906
1585002096.910,36.621,25.391,30.762,77.148,2.441
1585002096.914,31.250,40.527,45.410,-0.488,8.789
1585002096.918,19.531,40.527,42.480,-40.527,33.203
1585002096.922,24.902,28.320,35.156,41.016,73.242
1585002096.926,37.598,25.391,37.109,96.191,28.320
1585002096.930,29.785,34.668,46.875,33.691,-14.160
1585002096.934,17.578,38.086,45.410,-53.711,19.043
1585002096.937,22.461,25.391,30.762,1.953,59.082
1585002096.941,39.062,22.461,30.762,83.496,37.598
1585002096.945,30.273,33.691,38.086,53.223,24.902
1585002096.949,18.066,38.574,41.016,-41.504,17.578
1585002096.953,12.695,29.785,30.273,-23.438,24.414
1585002096.957,20.996,26.367,24.902,74.707,-15.625
1585002096.961,34.668,34.668,34.180,71.777,-30.273
1585002096.965,22.461,39.551,41.992,-22.461,2.930
1585002096.969,4.883,30.273,34.668,-41.992,21.973
1585002096.973,17.090,20.996,24.902,45.410,51.758
1585002096.977,25.391,25.391,29.297,71.289,74.707
1585002096.980,24.414,35.156,37.598,-3.418,32.715
1585002096.984,28.809,37.109,39.062,-39.062,40.527
1585002096.988,28.809,22.949,28.320,33.203,5.859
1585002096.992,34.180,17.578,26.367,83.008,-23.926
1585002096.996,28.320,29.785,35.156,31.738,33.691
1585002097.000,8.301,32.227,34.668,-53.711,42.969
1585002097.004,-0.977,20.996,25.391,-1.953,1.953
1585002097.008,21.484,17.090,24.902,90.820,43.945
1585002097.012,34.668,27.832,32.227,60.059,65.430
1585002097.016,14.648,34.668,37.109,-43.945,31.738
1585002097.019,7.812,23.438,34.180,-29.785,61.523
1585002097.023,21.484,11.230,28.809,65.918,22.949
1585002097.027,19.043,17.090,33.691,67.383,-15.625
1585002097.031,15.625,33.203,44.434,-20.508,-41.504
1585002097.035,18.555,29.297,41.504,-42.480,-34.668
1585002097.039,5.859,16.602,30.762,51.270,54.199
1585002097.043,10.742,18.555,32.715,84.473,101.074
1585002097.047,20.996,31.250,45.410,10.254,60.547
1585002097.051,20.020,31.250,42.969,-43.945,60.547
1585002097.055,16.113,16.113,28.320,26.855,54.688
1585002097.059,22.949,16.113,29.297,96.680,42.480
1585002097.062,32.715,27.344,39.551,56.152,67.383
1585002097.066,23.438,29.785,41.016,-35.156,45.410
1585002097.070,17.090,19.043,29.297,-2.441,26.367
1585002097.074,35.156,17.090,28.809,84.961,-10.742
1585002097.078,31.250,26.855,38.086,61.523,6.348
1585002097.082,20.508,33.203,44.922,-41.016,54.199
1585002097.086,8.301,25.391,39.062,-32.715,40.527
1585002097.090,14.160,17.090,33.691,74.707,19.531
1585002097.094,35.156,22.949,41.016,93.750,30.762
1585002097.098,37.109,32.227,49.316,1.953,-8.789
1585002097.102,20.020,27.832,42.969,-45.410,-13.184
1585002097.105,5.371,18.066,30.273,35.156,-13.184
1585002097.109,14.648,20.996,30.762,72.266,-22.461
1585002097.113,22.949,30.273,41.016,6.348,-27.832
1585002097.117,18.066,29.785,41.992,-45.898,13.672
1585002097.121,27.832,22.461,32.227,27.344,28.809
1585002097.125,24.414,18.555,31.250,88.867,13.672
1585002097.129,18.066,23.926,42.969,34.668,9.766
1585002097.133,14.160,31.250,48.340,-48.828,22.461
1585002097.137,6.836,26.855,35.156,-7.324,14.648
1585002097.141,16.602,21.973,27.344,74.219,2.441
1585002097.144,14.648,24.902,38.574,56.641,48.340
1585002097.148,17.090,31.250,49.805,-26.367,50.781
1585002097.152,22.461,27.832,42.480,-23.438,49.316
1585002097.156,35.645,15.625,31.250,68.359,27.344
1585002097.160,31.250,15.625,31.738,75.195,-2.441
1585002097.164,27.344,30.762,41.992,-4.883,14.160
1585002097.168,24.414,33.691,40.527,-40.039,19.043
1585002097.172,5.859,20.020,24.902,34.668,-11.230
1585002097.176,20.508,17.578,27.832,83.496,-13.672
1585002097.180,25.879,28.809,38.086,12.695,37.598
1585002097.184,15.137,31.250,38.086,-58.105,59.570
1585002097.187,21.484,21.973,28.320,11.719,10.254
1585002097.191,30.762,20.020,26.367,87.402,29.785
1585002097.195,32.227,27.832,37.109,47.363,69.824
1585002097.199,21.484,32.715,43.945,-41.016,7.812
1585002097.203,9.766,23.438,33.691,-20.020,-35.156
1585002097.207,17.090,12.695,25.879,55.664,10.742
1585002097.211,24.414,20.508,33.203,45.898,9.766
1585002097.215,17.090,32.227,43.457,-38.086,7.812
1585002097.219,14.648,25.391,36.133,-46.875,22.461
1585002097.223,29.297,17.578,22.949,51.758,23.926
1585002097.227,28.809,23.926,26.855,83.008,-2.441
1585002097.230,25.879,31.738,39.062,4.395,57.617
1585002097.234,17.090,29.297,41.016,-47.852,105.469
1585002097.238,3.906,17.578,27.832,28.809,60.059
1585002097.242,21.484,18.066,27.344,87.891,23.926
1585002097.246,42.969,30.273,43.945,41.016,12.695
1585002097.250,26.855,29.785,44.434,-34.180,32.715
1585002097.254,10.254,14.160,30.762,6.836,0.977
1585002097.258,19.043,13.184,28.320,87.402,-22.461
1585002097.262,23.926,27.832,37.598,49.316,22.461
1585002097.266,13.184,33.203,44.922,-42.969,52.246
1585002097.269,4.883,22.461,34.180,-17.090,40.527
1585002097.273,8.789,20.020,22.461,71.289,-8.301
1585002097.277,25.879,27.832,30.273,76.660,-17.578
1585002097.281,32.715,33.691,42.480,-1.953,3.906
1585002097.285,29.785,29.297,37.598,-18.555,18.066
1585002097.289,35.156,16.602,28.809,69.336,55.664
1585002097.293,29.785,17.578,31.250,82.031,35.156
1585002097.297,17.578,28.809,40.039,-3.418,20.508
1585002097.301,21.484,32.715,41.016,-46.875,25.391
1585002097.305,26.855,24.902,32.715,33.203,22.949
1585002097.309,20.020,20.020,29.297,80.078,7.812
1585002097.312,20.508,29.785,36.621,24.902,34.180
1585002097.316,26.367,36.133,44.922,-45.898,30.273
1585002097.320,34.180,25.391,32.227,6.348,-9.766
1585002097.324,30.762,20.996,23.438,88.379,20.996
1585002097.328,21.973,28.320,31.250,60.547,49.316
1585002097.332,15.137,37.598,39.551,-27.832,100.098
1585002097.336,13.184,31.738,30.273,-20.020,77.148
1585002097.340,15.137,17.578,20.020,74.219,30.762
1585002097.344,14.160,20.020,27.832,75.684,6.836
1585002097.348,13.184,33.203,39.062,-19.043,25.391
1585002097.352,4.883,30.273,34.180,-59.570,103.027
1585002097.355,4.395,14.648,22.461,25.391,18.555
1585002097.359,22.949,15.137,26.855,78.125,-74.707
1585002097.363,24.414,29.785,38.086,12.695,-45.410
1585002097.367,13.184,30.762,35.645,-52.734,4.395
1585002097.371,13.184,18.066,26.855,12.695,22.461
1585002097.375,18.555,17.090,27.832,83.984,0.488
1585002097.379,15.625,27.832,37.109,35.156,6.348
1585002097.383,5.859,32.227,41.016,-53.711,2.441
1585002097.387,1.953,23.926,33.203,-12.207,20.508
1585002097.391,23.926,18.555,31.738,83.984,34.180
1585002097.394,32.227,26.367,40.527,71.289,19.043
1585002097.398,10.742,34.180,46.387,-31.250,26.367
1585002097.402,10.742,25.391,38.086,-31.738,28.809
1585002097.406,25.879,17.578,31.738,72.754,32.227
1585002097.410,22.949,23.438,36.621,83.008,46.875
1585002097.414,20.508,36.621,43.457,-2.441,25.391
1585002097.418,20.020,37.109,40.527,-41.504,13.184
1585002097.422,20.996,22.949,28.809,37.109,36.133
1585002097.426,28.320,23.438,28.320,88.867,20.020
1585002097.430,33.691,37.598,40.039,26.367,-12.207
1585002097.434,28.809,38.086,45.410,-39.062,-56.641
1585002097.437,32.715,23.926,35.156,24.902,-24.902
1585002097.441,43.457,21.484,27.832,81.543,10.254
1585002097.445,23.438,30.273,32.227,35.645,25.879
1585002097.449,26.367,38.574,39.062,-38.574,12.695
1585002097.453,23.926,33.691,31.738,-6.836,54.199
1585002097.457,11.719,24.902,24.414,79.590,91.797
1585002097.461,29.785,30.273,34.668,76.660,66.895
1585002097.465,34.668,39.551,46.875,-10.254,69.824
1585002097.469,23.926,31.738,40.527,-36.133,77.637
1585002097.473,19.531,19.043,29.785,50.293,45.410
1585002097.477,38.086,27.344,34.668,81.055,0.977
1585002097.480,44.434,41.504,46.875,4.883,15.137
1585002097.484,23.926,40.527,44.922,-45.898,23.926
1585002097.488,26.367,27.344,31.250,27.344,40.039
1585002097.492,40.527,25.391,27.344,89.844,41.504
1585002097.496,31.738,36.133,37.109,32.715,32.715
1585002097.500,19.043,40.527,41.992,-49.316,16.113
1585002097.504,21.973,27.832,32.227,1.465,21.973
1585002097.508,33.691,21.484,27.832,80.078,12.207
1585002097.512,45.898,29.297,38.086,49.805,5.371
1585002097.516,38.086,36.621,48.340,-31.250,-18.555
1585002097.519,38.574,29.297,40.527,-6.348,-51.270
1585002097.523,37.598,23.438,32.227,83.008,8.301
1585002097.527,33.691,32.227,36.621,65.430,28.320
1585002097.531,28.809,39.551,43.945,-32.715,30.762
1585002097.535,12.207,30.762,39.062,-37.109,33.203
1585002097.539,24.414,23.926,28.809,60.059,17.578
1585002097.543,34.180,30.762,32.227,85.449,43.945
1585002097.547,25.391,38.574,42.969,-1.953,86.914
1585002097.551,4.883,33.691,42.969,-65.918,104.492
1585002097.555,0.488,21.484,31.250,10.254,102.539
1585002097.559,19.531,22.461,32.227,72.754,80.566
1585002097.562,26.855,35.156,44.922,28.809,13.672
1585002097.566,22.949,37.598,47.852,-47.852,52.246
1585002097.570,21.973,25.879,37.109,2.441,54.688
1585002097.574,32.227,24.414,33.203,82.520,-2.441
1585002097.578,27.344,34.180,39.062,44.434,10.742
1585002097.582,16.602,38.086,45.410,-44.434,46.387
1585002097.586,15.625,30.273,35.645,-36.621,52.734
1585002097.590,20.508,22.461,26.855,60.547,32.227
1585002097.594,25.879,25.879,36.133,76.172,15.625
1585002097.598,25.391,36.133,45.898,-11.230,-8.789
1585002097.602,20.996,32.227,42.969,-38.574,-2.441
1585002097.605,22.949,21.484,32.715,47.852,30.273
1585002097.609,30.762,21.973,36.621,82.520,25.391
1585002097.613,28.320,30.762,48.828,13.184,-23.926
1585002097.617,30.762,36.621,47.852,-41.016,-21.484
1585002097.621,31.250,28.320,35.156,29.297,-16.602
1585002097.625,32.715,24.902,32.227,86.426,22.461
1585002097.629,28.809,33.691,42.480,36.621,52.246
1585002097.633,10.742,43.457,46.387,-47.852,29.297
1585002097.637,11.719,32.715,35.645,-13.184,15.625
1585002097.641,21.973,19.531,29.297,81.055,2.930
1585002097.644,28.809,27.832,38.086,68.848,-71.289
1585002097.648,25.391,36.133,48.828,-23.926,-44.434
1585002097.652,18.555,30.762,40.039,-26.855,31.250
1585002097.656,16.113,22.461,29.785,63.477,40.039
1585002097.660,29.785,22.461,39.062,84.961,17.578
1585002097.664,38.086,31.250,54.199,13.672,29.785
1585002097.668,18.555,30.762,50.781,-28.809,32.227
1585002097.672,6.836,20.996,30.762,33.691,21.973
1585002097.676,22.949,24.414,30.762,85.938,59.082
1585002097.680,30.273,39.062,46.875,24.414,29.785
1585002097.684,26.855,39.062,50.781,-50.293,-20.020
1585002097.687,19.531,26.367,35.645,10.742,-50.293
1585002097.691,20.508,25.391,29.297,96.191,-18.066
1585002097.695,21.484,33.691,41.992,55.176,12.207
1585002097.699,10.742,38.086,48.828,-46.875,34.180
1585002097.703,14.160,30.762,38.574,-12.695,36.133
1585002097.707,25.879,26.367,31.738,87.402,-3.906
1585002097.711,28.320,33.203,37.109,72.266,47.363
1585002097.715,21.973,41.992,47.363,-28.809,58.105
1585002097.719,12.207,33.203,38.574,-38.086,60.059
1585002097.723,17.578,23.438,28.809,57.617,88.867
1585002097.727,23.926,27.344,37.598,71.777,58.105
1585002097.730,18.066,34.180,46.387,-16.113,35.645
1585002097.734,9.277,32.715,40.039,-56.641,29.785
1585002097.738,5.859,23.926,25.879,24.414,26.367
1585002097.742,22.461,22.461,25.879,75.684,31.738
1585002097.746,23.438,31.738,36.621,10.742,23.926
1585002097.750,25.879,37.109,41.016,-58.594,4.883
1585002097.754,18.555,27.344,30.762,8.301,56.641
1585002097.758,13.672,20.020,25.879,88.867,66.895
1585002097.762,21.484,29.297,34.180,45.898,82.520
1585002097.766,10.742,39.551,38.574,-49.805,61.035
1585002097.769,11.230,34.180,31.250,-27.832,-10.254
1585002097.773,19.531,23.438,22.949,60.059,-20.996
1585002097.777,22.949,25.879,29.297,69.824,13.184
1585002097.781,24.902,40.527,45.410,-10.254,57.129
1585002097.785,17.090,38.086,41.016,-36.133,28.809
1585002097.789,23.438,24.902,24.902,53.223,26.367
1585002097.793,29.785,27.344,28.320,85.938,72.754
1585002097.797,19.531,37.109,44.434,3.418,70.312
1585002097.801,5.371,33.691,44.922,-52.246,81.055
1585002097.805,5.371,19.531,30.762,24.414,64.453
1585002097.809,18.555,16.602,31.738,84.473,18.066
1585002097.812,25.391,28.809,44.434,31.250,-13.184
1585002097.816,24.902,35.645,46.875,-50.781,0.488
1585002097.820,15.625,21.973,30.762,-2.930,17.578
1585002097.824,20.020,14.160,25.391,82.520,-11.230
1585002097.828,25.879,25.879,37.109,60.547,-19.531
1585002097.832,11.230,35.645,43.457,-35.645,8.301
1585002097.836,8.301,27.832,33.691,-28.809,-2.441
1585002097.840,24.902,19.043,26.367,71.777,31.250
1585002097.844,36.133,24.902,36.133,80.566,53.711
1585002097.848,31.738,34.180,45.898,-11.719,30.762
1585002097.852,19.531,31.250,42.480,-38.086,22.461
1585002097.855,13.672,21.484,32.227,52.734,39.062
1585002097.859,19.531,21.484,33.691,81.543,80.566
1585002097.863,19.531,33.691,42.969,4.395,39.551
1585002097.867,19.043,35.645,41.504,-50.781,-33.691
1585002097.871,25.879,22.949,28.809,22.461,-1.953
1585002097.875,26.367,20.996,25.391,96.191,79.102
1585002097.879,32.715,32.715,39.062,49.805,112.305
1585002097.883,25.879,42.969,44.922,-43.457,55.664
1585002097.887,15.625,36.133,31.738,-0.977,14.160
1585002097.891,25.391,28.320,25.391,89.844,31.250
1585002097.894,35.156,34.180,34.668,66.895,15.625
1585002097.898,23.438,39.551,43.945,-24.902,12.695
1585002097.902,10.742,31.250,38.574,-23.438,19.043
1585002097.906,22.949,23.926,30.762,63.477,28.809
1585002097.910,32.227,26.367,32.715,74.219,20.508
1585002097.914,30.762,36.621,43.457,-4.395,-15.137
1585002097.918,19.043,34.668,41.992,-40.039,36.621
1585002097.922,19.531,23.926,30.762,43.457,72.266
1585002097.926,38.086,27.832,35.645,99.121,19.043
1585002097.930,39.551,41.016,49.316,40.039,21.973
1585002097.934,25.879,40.527,45.898,-41.504,-2.930
1585002097.937,11.719,28.320,28.320,5.371,-39.551
1585002097.941,18.066,25.391,26.367,81.543,49.805
1585002097.945,24.902,32.227,38.574,51.270,70.801
1585002097.949,23.438,38.574,47.852,-35.156,-3.906
1585002097.953,20.020,28.809,36.621,-13.184,37.598
1585002097.957,15.625,17.578,20.996,73.730,28.320
1585002097.961,13.672,26.855,27.344,65.918,-35.645
1585002097.965,17.090,37.109,38.574,-28.809,-43.457
1585002097.969,11.719,26.855,30.273,-45.410,38.086
1585002097.973,8.301,16.602,17.578,53.711,94.727
1585002097.977,25.391,25.879,26.855,84.961,71.289
1585002097.980,30.273,35.645,43.457,2.930,62.988
1585002097.984,12.207,29.785,38.086,-52.734,45.410
1585002097.988,12.695,23.438,25.391,25.879,-10.254
1585002097.992,19.531,27.832,31.250,88.379,-5.859
1585002097.996,21.973,38.574,42.969,26.855,8.789
1585002098.000,25.391,41.992,41.504,-45.410,-14.648
1585002098.004,28.320,28.320,28.320,17.578,14.648
1585002098.008,34.180,22.461,27.832,99.609,41.504
1585002098.012,36.133,32.715,39.551,57.129,51.758
1585002098.016,18.066,35.156,39.062,-51.758,79.590
1585002098.019,7.324,26.855,27.832,-23.926,81.055
1585002098.023,8.789,21.973,21.484,75.195,17.090
1585002098.027,19.043,27.832,29.785,71.777,46.875
1585002098.031,21.973,37.598,41.504,-13.184,5.371
1585002098.035,19.531,30.273,34.668,-25.879,-8.789
1585002098.039,32.715,20.508,22.949,64.453,54.688
1585002098.043,34.668,25.879,26.855,88.379,23.438
1585002098.047,16.113,35.645,37.109,0.488,2.441
1585002098.051,8.789,35.156,33.691,-54.199,33.691
1585002098.055,28.809,26.367,23.438,32.715,62.500
1585002098.059,33.691,25.879,22.949,84.473,34.668
1585002098.062,27.832,33.691,30.762,27.832,27.832
1585002098.066,24.902,38.086,35.156,-44.434,27.344
1585002098.070,21.484,30.273,26.367,7.324,0.977
1585002098.074,30.273,24.414,20.996,90.820,-0.977
1585002098.078,34.668,34.668,30.762,62.012,26.855
1585002098.082,33.691,44.922,40.039,-35.156,7.812
1585002098.086,25.879,35.156,32.715,-19.043,-20.020
1585002098.090,26.855,23.438,22.461,79.102,23.926
1585002098.094,33.691,28.809,26.855,76.172,41.992
1585002098.098,33.691,40.527,41.504,-7.812,8.301
1585002098.102,25.391,34.668,39.551,-32.227,-1.953
1585002098.105,25.879,20.020,27.344,53.223,-0.977
1585002098.109,37.598,24.902,30.273,97.656,5.859
1585002098.113,28.809,37.598,40.039,15.625,16.602
1585002098.117,14.648,39.551,39.551,-58.105,37.109
1585002098.121,23.438,30.762,25.391,18.066,85.938
1585002098.125,34.668,28.809,23.926,94.238,40.039
1585002098.129,23.438,37.598,36.133,41.992,-38.086
1585002098.133,18.555,43.457,41.504,-41.016,27.832
1585002098.137,27.344,33.203,35.156,13.184,98.145
1585002098.141,41.992,24.902,26.855,94.727,31.250
1585002098.144,44.434,37.109,33.691,70.312,-14.160
1585002098.148,23.438,44.922,39.062,-30.762,-14.648
1585002098.152,16.602,32.715,27.344,-41.504,34.668
1585002098.156,30.273,24.414,22.949,59.082,53.223
1585002098.160,35.645,28.809,33.203,84.473,16.113
1585002098.164,27.832,38.086,41.992,-4.395,7.324
1585002098.168,30.273,36.133,39.551,-32.227,-7.812
1585002098.172,35.156,25.879,28.320,62.500,48.828
1585002098.176,28.320,28.320,29.297,90.332,28.320
1585002098.180,23.926,35.156,42.480,17.578,-31.738
1585002098.184,27.832,33.203,45.410,-33.203,13.672
1585002098.187,29.785,25.391,36.133,35.645,-1.953
1585002098.191,24.902,24.414,31.738,92.773,11.719
1585002098.195,27.832,34.668,32.227,23.926,13.672
1585002098.199,15.625,41.504,36.133,-66.406,17.090
1585002098.203,11.719,30.762,28.320,-22.949,47.363
1585002098.207,25.879,19.531,22.461,77.148,70.801
1585002098.211,25.879,26.855,33.203,69.336,117.188
1585002098.215,23.926,35.645,44.922,-21.973,85.938
1585002098.219,26.855,30.762,40.039,-22.461,55.176
1585002098.223,23.926,23.926,28.320,62.988,53.223
1585002098.227,18.555,27.832,33.691,67.871,28.320
1585002098.230,19.043,39.062,47.363,-11.230,51.270
1585002098.234,20.508,37.109,41.504,-51.270,44.922
1585002098.238,24.414,22.461,27.832,27.344,-0.488
1585002098.242,29.785,18.066,29.785,84.473,5.371
1585002098.246,42.480,31.738,44.434,31.738,41.016
1585002098.250,34.180,37.598,47.852,-42.480,23.438
1585002098.254,11.719,23.438,30.273,3.418,54.688
1585002098.258,12.207,20.020,21.484,73.242,9.766
1585002098.262,20.996,30.762,31.738,42.480,-10.742
1585002098.266,25.879,41.504,42.480,-36.621,31.250
1585002098.269,18.066,31.250,33.203,-14.648,14.648
1585002098.273,20.996,18.555,24.902,72.266,45.898
1585002098.277,33.691,28.809,36.621,75.684,71.289
1585002098.281,36.133,42.480,46.875,-17.090,62.500
1585002098.285,31.738,33.691,38.574,-37.109,32.227
1585002098.289,41.016,20.020,31.250,73.242,28.320
1585002098.293,48.828,25.391,39.062,106.445,15.625
1585002098.297,34.180,38.574,48.340,15.625,28.809
1585002098.301,12.695,37.109,40.527,-44.922,30.762
1585002098.305,8.301,24.902,27.832,27.832,-70.312
1585002098.309,24.902,26.367,28.320,90.820,-7.324
1585002098.312,34.668,37.598,40.527,41.016,47.363
1585002098.316,27.832,42.969,41.504,-39.062,-24.902
1585002098.320,26.367,30.273,31.250,13.184,20.996
1585002098.324,41.016,23.438,30.762,103.516,61.523
1585002098.328,36.133,28.809,39.062,65.430,7.324
1585002098.332,31.738,35.645,45.898,-39.062,-24.902
1585002098.336,25.879,34.668,33.691,-22.461,23.438
1585002098.340,27.344,27.344,22.949,65.918,54.199
1585002098.344,28.320,26.367,28.320,60.059,17.578
1585002098.348,14.648,35.645,39.551,-25.391,24.414
1585002098.352,20.508,34.668,39.062,-38.574,26.855
1585002098.355,29.297,20.996,29.297,56.152,51.758
1585002098.359,41.992,22.949,33.691,96.191,45.898
1585002098.363,48.828,37.109,43.945,23.926,17.578
1585002098.367,35.156,42.480,43.945,-31.738,13.672
1585002098.371,31.738,34.180,31.250,35.645,-30.762
1585002098.375,37.109,28.320,28.320,94.727,-9.277
1585002098.379,36.133,34.180,44.434,52.734,6.836
1585002098.383,37.109,39.551,55.176,-19.043,29.297
1585002098.387,26.855,32.715,40.039,16.602,11.719
1585002098.391,25.391,28.809,24.414,77.148,18.066
1585002098.394,34.668,37.109,35.645,51.758,54.688
1585002098.398,17.090,40.527,48.340,-39.062,33.203
1585002098.402,10.742,31.250,41.016,-29.297,-18.066
1585002098.406,26.367,25.879,30.273,72.266,-1.465
1585002098.410,32.715,30.762,35.156,83.984,26.855
1585002098.414,28.320,38.086,45.410,-2.930,30.762
1585002098.418,27.344,37.598,42.969,-36.621,-16.602
1585002098.422,22.949,27.344,30.762,42.969,-5.371
1585002098.426,18.066,24.414,31.738,78.613,58.105
1585002098.430,26.367,34.180,47.363,10.742,57.617
1585002098.434,19.531,35.156,48.340,-54.199,37.109
1585002098.437,19.531,20.996,32.715,19.043,21.484
1585002098.441,36.133,20.020,34.668,99.121,0.488
1585002098.445,38.574,30.273,47.363,48.828,1.465
1585002098.449,24.414,36.133,50.293,-47.852,8.789
1585002098.453,22.949,24.414,39.551,-8.301,13.184
1585002098.457,41.992,18.066,35.156,96.680,28.809
1585002098.461,44.922,30.273,46.875,89.355,20.020
1585002098.465,32.227,37.598,57.617,-13.672,24.902
1585002098.469,16.113,28.809,44.434,-29.297,14.648
1585002098.473,25.391,20.996,31.250,66.406,20.996
1585002098.477,41.992,27.832,39.551,92.773,34.668
1585002098.480,32.227,36.133,48.828,1.465,-12.695
1585002098.484,19.043,31.250,48.828,-38.086,40.527
1585002098.488,28.809,21.484,40.527,56.152,70.312
1585002098.492,42.969,20.996,42.480,112.305,22.949
1585002098.496,39.062,27.832,50.781,45.410,42.480
1585002098.500,28.320,31.738,50.293,-30.762,72.266
1585002098.504,29.785,22.949,34.180,25.879,29.297
1585002098.508,26.855,20.996,26.855,87.402,80.078
1585002098.512,11.719,30.273,38.574,38.086,86.426
1585002098.516,11.719,35.156,42.969,-58.105,42.969
1585002098.519,18.555,26.367,34.180,-19.531,72.754
1585002098.523,33.691,20.996,25.879,85.938,-10.254
1585002098.527,43.457,26.855,31.738,73.242,-20.996
1585002098.531,30.762,36.621,42.969,-24.414,3.906
1585002098.535,16.113,29.297,37.109,-30.762,-19.043
1585002098.539,20.996,19.043,23.926,64.941,36.621
1585002098.543,40.527,22.949,27.344,90.332,82.520
1585002098.547,38.086,35.156,40.039,10.254,22.949
1585002098.551,31.738,37.598,38.086,-41.016,39.062
1585002098.555,35.645,24.414,24.414,39.062,7.812
1585002098.559,37.598,20.508,27.344,100.586,3.418
1585002098.562,37.109,31.250,41.504,43.945,45.898
1585002098.566,29.297,38.574,42.480,-52.734,98.633
1585002098.570,18.066,26.855,29.785,-6.836,76.660
1585002098.574,22.461,20.508,27.832,86.914,5.371
1585002098.578,35.156,32.227,39.062,61.523,27.344
1585002098.582,39.062,39.062,48.828,-28.320,15.137
1585002098.586,31.250,26.855,38.086,-8.301,9.766
1585002098.590,35.156,19.043,24.902,79.102,26.367
1585002098.594,41.016,26.367,31.738,68.848,16.602
1585002098.598,22.461,38.086,42.480,-28.809,12.695
1585002098.602,3.418,35.156,34.180,-54.688,0.977
1585002098.605,10.742,25.391,23.926,50.293,62.988
1585002098.609,35.156,32.227,29.297,95.703,74.707
1585002098.613,33.691,42.480,38.574,11.230,-3.906
1585002098.617,15.625,37.598,37.598,-43.457,18.066
1585002098.621,18.555,23.438,28.809,34.668,87.402
1585002098.625,43.457,22.949,29.297,99.121,54.199
1585002098.629,36.621,34.180,40.527,39.062,-18.555
1585002098.633,0.000,36.621,42.480,-54.688,50.293
1585002098.637,0.488,25.391,32.227,-3.418,85.938
1585002098.641,21.973,19.531,31.738,95.703,22.461
1585002098.644,39.551,29.297,40.039,73.242,14.160
1585002098.648,24.902,40.527,43.457,-38.574,58.594
1585002098.652,12.207,35.156,36.621,-33.203,51.270
1585002098.656,16.113,24.902,26.855,66.895,21.484
1585002098.660,12.695,24.902,30.273,71.777,53.223
1585002098.664,20.020,37.109,45.898,-15.625,27.832
1585002098.668,24.414,34.180,46.387,-38.086,30.762
1585002098.672,18.555,21.973,36.133,52.246,55.664
1585002098.676,20.020,21.484,36.133,86.426,20.020
1585002098.680,23.926,31.250,47.852,12.695,41.504
1585002098.684,24.414,33.203,49.316,-49.316,42.969
1585002098.687,32.227,20.508,38.574,25.391,13.672
1585002098.691,37.598,15.625,35.645,101.074,5.371
1585002098.695,33.203,27.832,40.527,44.922,10.254
1585002098.699,27.344,40.527,45.898,-61.035,-10.254
1585002098.703,12.695,31.250,33.691,-22.949,25.391
1585002098.707,14.160,20.996,21.484,81.543,57.129
1585002098.711,28.320,31.738,33.203,72.266,30.762
1585002098.715,25.391,42.969,49.316,-31.250,26.855
1585002098.719,13.184,31.250,40.527,-37.109,64.453
1585002098.723,23.438,17.578,29.297,60.547,63.965
1585002098.727,34.668,26.367,40.039,79.590,10.742
1585002098.730,26.855,38.574,55.664,-4.395,-5.371
1585002098.734,17.090,33.691,49.316,-47.363,32.227
1585002098.738,13.184,22.461,36.133,41.016,3.418
1585002098.742,30.273,22.461,41.016,104.980,-53.711
1585002098.746,42.480,35.645,49.805,39.551,13.672
1585002098.750,28.320,42.969,45.410,-53.711,95.215
1585002098.754,10.742,28.809,31.250,1.953,57.129
1585002098.758,21.484,22.461,30.762,88.867,-20.020
1585002098.762,41.992,32.227,42.480,51.270,3.906
1585002098.766,38.574,35.156,50.293,-39.551,26.855
1585002098.769,46.875,27.344,42.969,5.371,6.836
1585002098.773,44.922,20.996,35.156,98.145,14.160
1585002098.777,33.203,28.320,46.387,75.684,10.742
1585002098.781,27.344,39.062,58.594,-22.461,8.301
1585002098.785,20.508,35.645,49.316,-30.762,52.734
1585002098.789,24.902,27.344,37.598,64.453,26.367
1585002098.793,35.156,29.297,47.363,86.426,-0.977
1585002098.797,41.016,38.086,60.547,6.348,-15.625
1585002098.801,23.926,35.156,56.641,-41.016,0.000
1585002098.805,27.832,22.461,48.340,47.363,45.410
1585002098.809,51.758,20.508,49.316,102.539,52.734
1585002098.812,50.781,30.762,56.641,35.645,31.250
1585002098.816,28.320,35.645,60.547,-36.621,49.805
1585002098.820,15.625,22.949,47.852,16.113,10.254
1585002098.824,20.020,17.090,39.551,89.355,-13.184
1585002098.828,39.551,26.367,49.805,60.059,2.441
1585002098.832,40.527,35.156,56.641,-28.809,-24.902
1585002098.836,26.855,30.762,45.898,-7.812,24.902
1585002098.840,33.203,25.391,38.086,83.008,36.621
1585002098.844,29.785,30.273,41.992,69.336,37.109
1585002098.848,17.578,40.527,52.246,-28.320,61.035
1585002098.852,21.484,33.203,46.875,-46.875,62.012
1585002098.855,28.320,16.602,34.668,54.199,15.625
1585002098.859,40.527,23.926,43.457,103.027,-8.301
1585002098.863,37.598,41.504,53.223,20.996,-7.812
1585002098.867,18.555,41.992,46.387,-56.152,13.672
1585002098.871,7.324,28.809,33.691,25.391,36.621
1585002098.875,20.508,26.367,35.645,102.539,-16.602
1585002098.879,30.273,35.156,47.363,41.016,-22.461
1585002098.883,10.254,38.574,49.805,-44.434,23.438
1585002098.887,5.859,28.809,39.551,11.719,-9.766
1585002098.891,19.531,22.461,34.668,93.262,12.695
1585002098.894,26.855,29.297,45.898,64.453,13.672
1585002098.898,17.090,33.691,55.176,-31.738,11.230
1585002098.902,13.184,22.949,41.504,-19.043,74.707
1585002098.906,24.414,17.578,31.738,79.102,78.125
1585002098.910,18.555,26.855,36.133,69.336,23.926
1585002098.914,7.812,38.086,43.457,-37.109,21.484
1585002098.918,4.395,34.180,41.504,-62.012,55.176
1585002098.922,19.043,24.902,31.250,40.039,52.734
1585002098.926,30.273,29.297,32.715,83.984,42.969
1585002098.930,35.645,40.527,45.898,10.742,28.320
1585002098.934,34.668,41.016,48.340,-47.852,-12.207
1585002098.937,26.855,28.320,33.691,28.320,-10.254
1585002098.941,33.691,22.949,33.203,92.285,29.297
1585002098.945,31.250,28.809,42.480,38.574,50.293
1585002098.949,29.785,32.227,47.852,-41.504,14.160
1585002098.953,31.738,20.508,37.109,-2.441,5.859
1585002098.957,38.574,17.090,30.762,85.449,14.648
1585002098.961,27.832,27.832,41.016,63.477,-5.859
1585002098.965,16.113,35.156,50.293,-38.574,12.207
1585002098.969,13.672,29.297,41.992,-30.273,76.172
1585002098.973,21.484,20.996,33.203,73.242,62.988
1585002098.977,30.273,26.855,39.062,79.590,29.785
1585002098.980,20.508,37.598,48.828,-16.113,55.664
1585002098.984,11.719,37.598,45.410,-52.734,66.406
1585002098.988,20.508,26.855,36.621,44.434,29.785
1585002098.992,29.785,24.902,39.062,98.633,28.320
1585002098.996,37.109,36.621,50.293,31.738,38.574
1585002099.000,24.902,40.527,50.781,-46.387,48.340
1585002099.004,15.137,27.344,40.039,14.648,13.184
1585002099.008,25.391,25.879,36.133,95.703,-44.922
1585002099.012,36.621,37.109,44.434,54.199,41.504
1585002099.016,41.016,40.527,51.270,-37.598,104.492
1585002099.019,33.203,27.832,39.551,0.977,83.984
1585002099.023,29.297,20.508,30.273,90.820,-3.906
1585002099.027,31.250,27.832,39.062,64.941,-35.645
1585002099.031,27.344,38.086,51.758,-43.457,20.020
1585002099.035,11.230,29.297,40.527,-50.781,59.082
1585002099.039,21.484,16.602,32.227,63.477,30.762
1585002099.043,39.062,22.461,44.434,90.332,0.977
1585002099.047,36.133,32.715,54.199,-0.488,-12.207
1585002099.051,21.484,31.738,49.805,-46.387,-22.461
1585002099.055,15.625,25.391,36.133,37.598,-23.438
1585002099.059,23.926,27.832,35.156,89.355,-7.324
1585002099.062,19.043,34.668,43.945,21.973,3.906
1585002099.066,5.371,32.715,44.922,-59.570,54.199
1585002099.070,6.348,22.949,34.180,7.324,56.641
1585002099.074,21.973,21.973,30.273,97.656,31.250
1585002099.078,32.227,28.320,40.527,59.570,62.988
1585002099.082,22.461,36.621,49.316,-35.156,79.590
1585002099.086,19.043,29.297,40.527,-7.812,41.016
1585002099.090,28.320,17.578,34.180,90.332,23.438
1585002099.094,35.156,20.020,43.457,84.473,36.133
1585002099.098,40.039,32.227,53.223,-14.160,2.930
1585002099.102,24.902,35.645,47.363,-41.016,-22.461
1585002099.105,25.879,28.320,35.156,51.270,16.113
1585002099.109,34.180,30.762,36.133,85.938,19.531
1585002099.113,29.785,40.039,47.363,10.254,-18.066
1585002099.117,30.762,39.062,45.410,-46.387,61.523
1585002099.121,33.203,26.855,35.645,31.738,82.520
1585002099.125,33.691,23.438,39.062,96.191,16.602
1585002099.129,26.367,31.738,50.781,43.945,-8.789
1585002099.133,25.391,38.086,53.711,-38.574,-7.324
1585002099.137,20.996,28.320,42.480,-0.977,61.035
1585002099.141,10.742,19.043,34.668,82.520,36.133
1585002099.144,23.926,25.879,42.969,62.988,20.508
1585002099.148,39.062,34.180,54.199,-29.785,55.176
1585002099.152,29.297,28.320,48.340,-16.602,13.672
1585002099.156,18.066,20.996,36.621,72.266,-18.555
1585002099.160,27.344,27.344,42.969,71.289,11.230
1585002099.164,24.414,39.062,53.711,-15.625,8.789
1585002099.168,17.090,36.133,48.828,-37.598,-23.926
1585002099.172,42.480,25.391,36.133,63.965,-48.828
1585002099.176,46.875,26.367,36.621,97.168,-2.930
1585002099.180,31.250,37.109,52.246,4.395,31.250
1585002099.184,20.508,35.645,50.293,-68.848,10.742
1585002099.187,18.066,17.578,35.156,16.113,32.227
1585002099.191,36.133,15.137,39.551,106.445,19.531
1585002099.195,35.156,23.926,56.641,56.152,82.031
1585002099.199,28.809,26.367,62.500,-42.480,84.961
1585002099.203,18.066,20.020,46.875,-7.812,6.348
1585002099.207,10.742,17.090,37.109,75.684,21.973
1585002099.211,13.672,23.438,48.340,52.246,18.066
1585002099.215,19.043,33.691,59.082,-45.898,2.930
1585002099.219,13.184,29.785,49.316,-37.109,-21.484
1585002099.223,20.508,20.020,43.945,80.566,-2.441
1585002099.227,37.598,25.391,56.641,97.656,14.648
1585002099.230,31.738,32.715,63.477,-2.930,-12.207
1585002099.234,20.508,28.809,54.688,-42.969,-13.184
1585002099.238,28.809,15.625,44.434,55.176,26.855
1585002099.242,33.691,16.602,45.898,106.934,25.879
1585002099.246,28.320,29.785,54.199,19.043,-29.297
1585002099.250,12.207,32.227,55.664,-62.988,-44.922
1585002099.254,5.859,24.414,45.898,11.719,0.488
1585002099.258,18.555,23.438,40.527,93.262,29.785
1585002099.262,26.367,32.227,49.316,50.781,40.527
1585002099.266,20.508,37.598,58.594,-41.504,66.895
1585002099.269,25.879,26.367,52.246,-5.859,52.734
1585002099.273,36.133,18.555,43.457,83.984,57.129
1585002099.277,33.691,27.344,44.922,57.129,-1.953
1585002099.281,20.020,36.133,54.199,-39.551,-24.902
1585002099.285,11.230,30.762,54.688,-38.574,-1.953
1585002099.289,29.297,22.461,51.758,73.730,-10.742
1585002099.293,44.434,25.391,55.176,99.609,19.531
1585002099.297,29.785,34.668,59.570,1.953,24.902
1585002099.301,10.254,38.574,55.176,-53.711,-16.602
1585002099.305,19.043,27.832,43.945,30.762,20.996
1585002099.309,30.762,26.367,46.387,97.168,70.801
1585002099.312,31.250,37.598,56.152,25.879,47.363
1585002099.316,20.996,39.551,60.547,-61.523,54.688
1585002099.320,6.348,23.926,50.293,4.395,6.836
1585002099.324,20.996,15.625,46.387,104.004,-26.367
1585002099.328,35.156,27.344,57.129,67.383,-48.340
1585002099.332,18.066,39.551,62.012,-45.410,-46.875
1585002099.336,0.000,28.320,50.293,-28.809,-26.367
1585002099.340,14.648,16.113,44.922,84.473,-9.766
1585002099.344,35.156,28.809,54.199,94.238,53.711
1585002099.348,28.809,43.457,59.570,-22.461,34.180
1585002099.352,13.672,38.574,51.758,-48.340,16.113
1585002099.355,24.414,27.832,42.480,63.477,39.551
1585002099.359,31.738,30.273,46.387,86.914,29.297
1585002099.363,24.414,40.039,55.176,-13.672,25.879
1585002099.367,16.113,35.645,50.293,-67.383,23.926
1585002099.371,14.648,22.461,41.016,31.738,26.855
1585002099.375,30.273,22.461,42.969,103.027,53.711
1585002099.379,40.527,31.250,51.758,35.645,57.129
1585002099.383,29.297,32.715,54.199,-51.270,-10.254
1585002099.387,20.508,20.996,44.922,19.531,-6.348
1585002099.391,34.180,16.602,40.527,109.863,19.531
1585002099.394,33.203,26.855,45.410,61.035,-6.348
1585002099.398,30.273,36.133,54.688,-43.945,13.184
1585002099.402,28.809,29.785,48.340,-27.832,0.000
1585002099.406,19.043,22.461,35.645,70.312,19.043
1585002099.410,20.508,26.855,37.109,60.059,37.109
1585002099.414,19.043,36.133,47.363,-26.367,24.414
1585002099.418,18.555,32.227,49.316,-31.250,30.762
1585002099.422,30.762,21.973,40.527,67.871,8.789
1585002099.426,34.668,25.391,40.527,98.633,14.160
1585002099.430,30.273,34.668,47.852,6.348,27.832
1585002099.434,25.391,37.598,45.410,-62.012,47.363
1585002099.437,16.602,27.344,33.203,15.625,61.523
1585002099.441,24.414,21.484,31.250,89.844,32.715
1585002099.445,37.109,27.832,44.922,51.270,33.203
1585002099.449,40.039,35.645,52.246,-39.551,0.977
1585002099.453,22.461,27.832,33.203,-13.672,-11.719
1585002099.457,23.438,20.996,22.461,80.078,29.297
1585002099.461,35.156,32.715,36.621,73.242,58.594
1585002099.465,27.832,38.086,45.898,-25.391,63.965
1585002099.469,26.855,27.344,38.086,-13.672,70.312
1585002099.473,34.668,17.090,31.250,94.238,58.105
1585002099.477,22.461,22.949,33.691,93.750,20.020
1585002099.480,6.348,35.156,41.504,-11.230,7.812
1585002099.484,8.301,32.715,37.109,-49.316,28.809
1585002099.488,18.555,19.043,23.438,46.875,7.324
1585002099.492,39.062,19.531,25.391,102.539,-61.035
1585002099.496,43.945,31.250,40.039,40.527,-31.250
1585002099.500,38.574,34.668,45.898,-19.531,20.996
1585002099.504,32.227,20.996,29.785,32.227,0.000
1585002099.508,26.855,19.531,20.508,84.473,-2.930
1585002099.512,23.438,36.133,26.855,33.691,59.570
1585002099.516,13.184,41.992,26.855,-62.500,47.852
1585002099.519,16.113,28.320,16.113,-5.859,66.895
1585002099.523,27.344,20.996,13.184,101.074,95.703
1585002099.527,35.156,30.273,21.484,73.242,30.762
1585002099.531,31.738,37.598,25.879,-30.273,-17.090
1585002099.535,23.438,30.273,22.949,-27.832,30.273
1585002099.539,32.227,23.438,13.672,77.637,87.891
1585002099.543,46.387,28.320,17.578,94.727,65.918
1585002099.547,40.039,38.086,28.320,1.465,63.965
1585002099.551,20.996,36.133,23.926,-43.945,35.645
1585002099.555,15.625,24.902,12.207,49.316,25.391
1585002099.559,35.156,24.414,11.230,102.051,61.523
1585002099.562,40.527,31.738,20.996,37.598,46.387
1585002099.566,28.320,35.156,26.367,-29.785,27.832
1585002099.570,30.273,29.297,16.113,18.066,43.945
1585002099.574,33.691,25.391,11.230,88.379,56.641
1585002099.578,24.902,33.691,20.508,50.293,66.895
1585002099.582,11.230,43.457,27.832,-48.340,44.922
1585002099.586,10.254,33.691,18.066,-19.043,21.484
1585002099.590,21.484,24.414,8.789,84.473,45.898
1585002099.594,26.367,31.250,14.160,73.242,20.996
1585002099.598,34.668,43.457,26.855,-22.949,-33.203
1585002099.602,27.344,37.598,23.438,-39.062,16.602
1585002099.605,17.578,22.461,9.766,56.152,66.895
1585002099.609,29.297,27.832,20.020,98.633,0.977
1585002099.613,36.133,38.086,32.227,15.137,-20.996
1585002099.617,23.438,36.621,23.926,-47.852,-12.695
1585002099.621,18.555,26.367,11.719,34.180,22.949
1585002099.625,37.109,27.344,14.648,101.074,58.594
1585002099.629,37.109,40.527,25.391,34.180,62.012
1585002099.633,28.809,41.992,26.855,-58.594,59.570
1585002099.637,24.902,29.297,13.672,-3.906,40.527
1585002099.641,25.391,20.996,8.789,83.496,-9.766
1585002099.644,37.109,30.273,20.996,54.199,1.465
1585002099.648,33.691,41.504,25.879,-51.270,8.301
1585002099.652,19.043,30.273,12.207,-31.250,21.973
1585002099.656,22.949,20.508,3.906,74.219,41.992
1585002099.660,34.668,27.832,13.184,71.289,29.297
1585002099.664,36.133,38.086,25.391,-24.902,45.898
1585002099.668,21.973,33.203,23.438,-40.039,46.875
1585002099.672,32.227,20.508,16.113,68.848,19.531
1585002099.676,43.457,21.484,17.090,105.469,40.527
1585002099.680,34.180,33.691,24.414,16.602,60.059
1585002099.684,34.180,34.668,23.438,-51.270,41.016
1585002099.687,36.133,22.949,14.160,29.785,48.340
1585002099.691,35.156,20.996,14.648,96.680,16.602
1585002099.695,25.391,26.367,20.020,40.527,60.059
1585002099.699,28.320,34.180,22.949,-41.992,65.918
1585002099.703,34.180,29.297,12.207,7.812,22.461
1585002099.707,21.484,22.461,6.836,94.238,96.680
1585002099.711,24.902,30.273,19.043,64.453,89.355
1585002099.715,31.250,39.551,30.273,-35.156,33.691
1585002099.719,27.832,33.691,22.949,-23.438,-16.602
1585002099.723,33.691,21.973,12.207,87.402,22.461
1585002099.727,44.434,25.879,19.043,97.168,57.617
1585002099.730,36.621,37.598,31.250,-7.324,-12.695
1585002099.734,23.438,37.598,24.414,-52.246,-10.254
1585002099.738,21.484,25.879,10.742,40.039,-14.160
1585002099.742,30.762,23.438,13.184,90.332,-50.293
1585002099.746,34.180,33.203,28.320,13.184,-45.410
1585002099.750,18.555,33.203,28.320,-58.105,0.488
1585002099.754,18.066,21.973,12.695,19.043,21.973
1585002099.758,31.250,20.508,13.184,104.980,37.109
1585002099.762,36.621,34.180,23.926,55.664,51.758
1585002099.766,28.809,43.945,26.367,-51.270,18.066
1585002099.769,19.531,32.227,18.555,-10.742,4.395
1585002099.773,36.621,23.438,17.578,100.586,20.996
1585002099.777,46.387,29.785,28.320,83.496,21.484
1585002099.781,29.297,36.621,38.086,-36.133,87.891
1585002099.785,14.160,29.785,31.738,-44.922,32.715
1585002099.789,18.066,20.996,22.461,67.871,-64.941
1585002099.793,27.832,28.320,26.855,84.961,8.301
1585002099.797,39.551,41.504,39.551,-8.789,24.414
1585002099.801,31.738,39.551,35.156,-56.152,-12.207
1585002099.805,30.273,27.344,23.438,42.480,24.902
1585002099.809,45.898,27.832,26.855,104.980,50.293
1585002099.812,36.133,37.598,36.133,25.391,25.391
1585002099.816,18.066,39.062,34.180,-55.664,20.020
1585002099.820,19.043,30.762,25.879,22.949,38.086
1585002099.824,35.645,28.809,26.367,116.211,39.062
1585002099.828,25.391,30.762,34.668,59.082,20.020
1585002099.832,10.742,36.133,37.598,-54.199,29.297
1585002099.836,11.719,29.785,27.344,-12.207,18.555
1585002099.840,29.785,22.949,22.949,97.168,-20.996
1585002099.844,35.645,29.297,27.832,74.219,16.602
1585002099.848,19.043,37.598,34.180,-32.227,27.832
1585002099.852,15.625,32.715,29.785,-36.133,2.930
1585002099.855,26.367,22.461,24.414,78.125,29.297
1585002099.859,37.109,25.879,30.273,104.004,53.711
1585002099.863,33.203,38.574,41.016,3.906,80.078
1585002099.867,26.367,37.598,40.527,-46.387,68.359
1585002099.871,26.855,24.414,31.250,47.363,20.996
1585002099.875,24.902,24.414,27.344,104.004,-26.367
1585002099.879,17.090,35.156,32.227,31.738,-1.465
1585002099.883,12.695,40.527,40.039,-51.270,24.414
1585002099.887,29.297,28.809,29.297,10.742,12.207
1585002099.891,35.645,20.996,18.555,97.656,19.531
1585002099.894,33.203,31.738,30.273,65.430,39.551
1585002099.898,31.738,40.527,38.086,-39.062,13.184
1585002099.902,20.020,27.832,29.297,-17.090,43.457
1585002099.906,27.832,17.090,25.391,91.797,101.074
1585002099.910,38.574,25.879,29.785,88.379,30.762
1585002099.914,23.926,37.598,38.574,-14.648,13.184
1585002099.918,19.043,34.668,35.645,-37.109,43.457
1585002099.922,12.207,22.949,22.949,62.012,57.129
1585002099.926,20.020,25.879,24.902,95.215,49.316
1585002099.930,23.926,38.086,37.598,2.930,8.301
1585002099.934,9.766,35.156,34.668,-63.477,11.719
1585002099.937,15.625,22.461,17.578,30.762,35.645
1585002099.941,24.902,22.461,20.508,113.281,26.367
1585002099.945,19.531,31.738,34.180,40.039,20.020
1585002099.949,7.812,33.203,35.156,-69.824,19.043
1585002099.953,4.395,22.461,21.973,-10.254,9.277
1585002099.957,20.508,19.043,16.602,88.867,20.508
1585002099.961,29.297,27.344,29.297,58.594,88.379
1585002099.965,21.973,35.645,38.574,-44.434,73.242
1585002099.969,19.043,28.809,28.809,-28.320,49.316
1585002099.973,28.320,20.996,20.996,86.914,17.090
1585002099.977,28.320,30.273,26.855,83.984,-46.387
1585002099.980,16.602,39.551,35.645,-24.414,18.555
1585002099.984,17.578,36.621,31.738,-48.340,53.711
1585002099.988,23.926,23.926,19.531,53.223,33.691
1585002099.992,27.344,18.555,21.973,93.750,83.008
1585002099.996,20.996,28.320,35.645,8.789,53.223
1585002100.000,6.348,31.250,39.062,-56.152,7.324
1585002100.004,4.883,20.508,25.391,23.926,-5.859
1585002100.008,24.902,18.066,22.949,104.980,1.465
1585002100.012,30.273,28.320,36.133,53.223,-6.348
1585002100.016,24.414,32.227,40.039,-53.711,11.719
1585002100.019,22.461,24.414,29.297,-19.531,27.832
1585002100.023,24.414,19.531,22.949,81.543,-21.484
1585002100.027,31.738,26.855,29.785,67.871,21.484
1585002100.031,35.645,41.016,36.621,-35.156,56.641
1585002100.035,25.879,37.109,26.855,-40.039,44.922
1585002100.039,15.137,24.414,16.113,54.199,53.711
1585002100.043,22.949,27.832,21.484,74.707,67.383
1585002100.047,32.227,39.551,35.156,-4.883,38.574
1585002100.051,24.902,34.180,35.645,-42.969,27.344
1585002100.055,38.086,19.043,29.297,59.570,15.625
1585002100.059,58.594,21.484,34.180,117.676,-13.672
1585002100.062,42.480,34.180,42.480,26.855,56.152
1585002100.066,16.602,37.598,39.062,-67.871,41.504
1585002100.070,2.930,24.414,23.926,-6.836,-33.203
1585002100.074,17.578,20.508,22.461,86.914,14.160
1585002100.078,24.902,29.785,34.180,43.945,67.383
1585002100.082,19.531,33.203,40.527,-58.594,32.227
1585002100.086,15.625,22.461,33.691,-20.996,0.488
1585002100.090,21.973,14.648,31.250,89.355,-7.324
1585002100.094,38.574,21.484,40.039,85.938,35.156
1585002100.098,29.785,33.691,44.434,-26.855,70.312
1585002100.102,4.395,34.180,33.691,-48.828,86.914
1585002100.105,7.812,25.391,23.438,58.105,69.336
1585002100.109,23.926,28.320,31.250,91.309,26.367
1585002100.113,39.551,39.062,40.527,-1.465,20.508
1585002100.117,41.016,36.621,39.062,-48.340,30.762
1585002100.121,35.156,24.414,30.273,47.852,58.594
1585002100.125,15.625,22.461,28.320,101.562,50.781
1585002100.129,20.508,32.715,39.062,22.461,41.016
1585002100.133,26.367,35.645,41.504,-61.523,44.434
1585002100.137,21.484,28.320,30.273,11.719,37.598
1585002100.141,35.645,26.367,30.273,106.934,-14.648
1585002100.144,39.062,30.762,41.504,65.430,-40.039
1585002100.148,24.902,35.156,46.387,-45.410,16.602
1585002100.152,14.160,30.273,35.156,-24.902,7.324
1585002100.156,15.625,21.973,26.367,79.590,0.488
1585002100.160,22.461,21.973,35.645,78.613,23.926
1585002100.164,22.461,33.691,46.875,-20.508,58.594
1585002100.168,12.695,34.180,38.574,-43.457,42.480
1585002100.172,15.625,22.461,26.367,53.711,25.879
1585002100.176,24.414,21.973,30.273,85.449,61.523
1585002100.180,24.902,36.133,40.039,-3.906,48.828
1585002100.184,20.020,38.086,39.551,-58.105,25.391
1585002100.187,18.555,23.438,29.785,30.273,5.371
1585002100.191,27.344,22.949,29.297,100.098,12.695
1585002100.195,25.879,36.621,40.039,46.387,11.230
1585002100.199,19.531,42.969,44.922,-56.641,20.020
1585002100.203,14.648,29.297,32.715,-17.578,41.504
1585002100.207,25.391,19.531,28.320,88.379,46.875
1585002100.211,48.828,29.785,41.992,81.055,37.109
1585002100.215,43.457,40.527,48.828,-20.020,83.496
1585002100.219,12.207,32.227,33.691,-31.250,57.129
1585002100.223,3.906,20.996,20.020,65.430,2.930
1585002100.227,16.113,27.344,27.832,72.754,33.203
1585002100.230,19.043,37.109,42.480,-22.949,63.477
1585002100.234,13.672,33.203,37.598,-52.246,78.125
1585002100.238,22.949,22.461,23.438,48.340,83.008
1585002100.242,34.180,21.973,25.879,96.680,30.762
1585002100.246,36.621,33.203,39.551,18.066,-11.230
1585002100.250,24.414,34.668,39.062,-55.176,42.969
1585002100.254,6.348,20.996,22.461,11.719,55.176
1585002100.258,12.207,20.996,22.461,88.867,0.488
1585002100.262,22.949,31.738,35.645,39.551,-6.836
1585002100.266,21.484,33.203,37.598,-56.641,38.574
1585002100.269,24.902,25.391,29.297,-0.488,20.996
1585002100.273,38.086,21.484,26.855,101.074,-8.301
1585002100.277,38.086,29.297,32.227,60.059,6.836
1585002100.281,14.648,38.086,36.133,-58.105,41.992
1585002100.285,-7.324,32.227,25.879,-48.340,45.898
1585002100.289,4.395,22.461,18.555,71.289,11.719
1585002100.293,37.109,26.855,25.879,89.355,33.691
1585002100.297,43.457,38.086,38.086,-3.418,77.148
1585002100.301,29.297,34.180,39.551,-30.273,-1.465
1585002100.305,35.156,25.879,28.320,64.941,-25.879
1585002100.309,35.645,29.785,24.414,95.215,-13.672
1585002100.312,19.531,38.086,34.668,15.137,34.180
1585002100.316,10.742,39.062,40.527,-55.176,72.266
1585002100.320,12.207,26.367,30.273,20.020,15.625
1585002100.324,30.273,17.090,27.832,112.793,13.672
1585002100.328,49.316,27.832,41.016,82.031,41.504
1585002100.332,37.598,39.551,46.875,-24.902,-4.883
1585002100.336,25.879,35.156,32.227,-5.371,-20.996
1585002100.340,28.809,28.809,22.949,87.402,31.250
1585002100.344,32.227,35.156,30.762,71.289,21.484
1585002100.348,23.926,46.387,41.992,-34.180,-16.113
1585002100.352,17.578,38.086,38.574,-41.504,-22.461
1585002100.355,20.508,21.484,26.367,68.848,-32.227
1585002100.359,28.320,26.367,30.762,103.516,33.203
1585002100.363,30.762,40.527,41.016,10.742,28.809
1585002100.367,23.926,40.039,32.227,-50.293,-36.621
1585002100.371,22.949,28.809,21.484,48.828,-23.438
1585002100.375,39.062,27.832,28.320,124.023,-7.324
1585002100.379,45.410,38.086,39.062,41.504,44.922
1585002100.383,20.996,38.574,36.621,-58.594,74.707
1585002100.387,12.207,26.855,25.391,6.348,11.719
1585002100.391,22.461,20.020,21.484,92.773,6.348
1585002100.394,30.273,32.715,33.203,46.387,64.453
1585002100.398,28.809,41.992,40.039,-59.570,45.898
1585002100.402,31.738,28.320,26.367,-25.879,16.602
1585002100.406,39.062,18.555,20.020,94.727,38.574
1585002100.410,44.922,27.344,28.320,94.727,58.594
1585002100.414,31.250,38.574,34.180,-25.879,60.059
1585002100.418,12.695,34.180,28.320,-58.594,65.430
1585002100.422,20.508,23.438,21.484,56.641,79.102
1585002100.426,32.227,23.926,23.926,96.680,29.297
1585002100.430,22.949,31.250,32.227,2.441,-29.785
1585002100.434,8.789,30.273,35.156,-56.152,-32.227
1585002100.437,19.043,19.531,25.391,35.645,-4.883
1585002100.441,29.785,19.043,22.461,97.656,43.945
1585002100.445,24.902,30.273,31.250,26.855,-12.695
1585002100.449,17.090,36.621,38.086,-57.617,-53.223
1585002100.453,19.043,27.344,31.250,6.348,3.418
1585002100.457,29.297,21.484,24.414,98.633,37.109
1585002100.461,30.273,30.273,33.203,66.895,56.641
1585002100.465,27.344,38.086,45.898,-28.809,12.207
1585002100.469,31.738,28.809,38.086,-7.324,-10.742
1585002100.473,35.156,15.137,29.297,94.238,5.371
1585002100.477,33.203,22.461,36.621,89.844,-1.953
1585002100.480,27.832,36.133,44.922,-17.090,8.301
1585002100.484,25.391,34.180,41.992,-36.133,-1.465
1585002100.488,27.832,26.367,27.832,62.012,24.902
1585002100.492,40.039,26.367,29.785,96.680,56.641
1585002100.496,38.574,37.109,45.898,17.090,-19.043
1585002100.500,37.109,38.574,43.457,-44.922,4.883
1585002100.504,36.621,27.344,29.297,40.527,47.363
1585002100.508,30.273,24.414,26.367,112.305,37.598
1585002100.512,33.203,33.691,37.598,59.082,46.875
1585002100.516,23.438,37.109,45.898,-41.504,-15.625
1585002100.519,10.742,23.926,37.109,1.465,3.418
1585002100.523,9.766,16.602,30.273,94.727,23.438
1585002100.527,18.555,27.832,38.086,73.242,10.742
1585002100.531,28.809,41.992,48.828,-30.762,80.566
1585002100.535,25.391,36.621,38.574,-37.598,80.566
1585002100.539,29.785,22.949,25.879,72.754,24.902
1585002100.543,37.598,28.809,35.156,101.562,47.852
1585002100.547,26.855,42.969,44.922,-6.348,-12.695
1585002100.551,7.812,39.062,35.156,-62.500,-18.555
1585002100.555,12.207,25.391,24.414,45.410,28.809
1585002100.559,28.809,24.414,27.832,97.168,-6.348
1585002100.562,27.344,34.668,39.062,15.137,25.391
1585002100.566,19.531,33.691,40.039,-60.059,43.945
1585002100.570,11.719,22.461,25.879,7.812,-7.812
1585002100.574,13.184,24.414,21.484,89.355,-5.371
1585002100.578,20.508,31.250,31.738,44.434,26.855
1585002100.582,17.090,34.180,38.574,-48.828,-15.137
1585002100.586,19.043,25.391,29.785,-2.441,-5.371
1585002100.590,27.344,17.578,26.855,93.262,36.133
1585002100.594,22.461,25.879,33.203,66.895,43.945
1585002100.598,13.184,37.598,39.062,-33.203,78.613
1585002100.602,11.719,33.203,28.320,-41.992,60.059
1585002100.605,17.090,20.020,17.090,59.082,37.598
1585002100.609,29.785,20.996,26.855,88.867,6.348
1585002100.613,37.109,35.156,41.992,-1.465,-0.977
1585002100.617,15.625,34.668,38.086,-59.082,36.621
1585002100.621,10.254,20.508,20.996,25.879,70.801
1585002100.625,28.809,21.973,21.484,86.426,66.895
1585002100.629,41.992,33.203,34.668,20.020,56.641
1585002100.633,37.109,36.621,41.504,-47.363,49.316
1585002100.637,32.715,28.320,31.738,16.602,-5.859
1585002100.641,32.227,20.020,21.973,84.473,55.176
1585002100.644,26.367,30.273,30.762,50.293,96.191
1585002100.648,22.949,43.457,36.621,-52.246,57.129
1585002100.652,22.461,35.645,26.855,-20.996,62.988
1585002100.656,44.434,24.414,21.484,95.703,82.520
1585002100.660,43.457,28.320,30.273,92.773,73.730
1585002100.664,23.438,39.062,43.457,-10.742,-12.207
1585002100.668,40.527,34.180,37.598,-27.832,-16.602
1585002100.672,41.504,21.973,23.438,72.754,15.625
1585002100.676,34.180,26.855,23.926,91.309,20.508
1585002100.680,27.344,40.039,38.086,-2.930,36.621
1585002100.684,7.812,37.109,39.551,-58.594,30.762
1585002100.687,12.207,21.484,28.809,28.809,1.953
1585002100.691,27.344,22.949,31.738,104.980,30.273
1585002100.695,33.691,36.133,41.992,51.270,9.766
1585002100.699,33.203,40.039,41.016,-41.504,0.977
1585002100.703,22.461,25.879,27.344,10.742,8.789
1585002100.707,32.715,19.531,25.391,107.422,72.754
1585002100.711,41.016,30.273,38.574,75.684,65.430
1585002100.715,25.391,37.598,49.805,-25.879,14.160
1585002100.719,15.137,27.344,39.551,-16.113,6.348
1585002100.723,24.414,21.484,27.344,79.590,19.531
1585002100.727,49.316,31.250,37.109,81.543,38.086
1585002100.730,42.969,37.598,45.898,-23.926,53.711
1585002100.734,18.066,31.738,39.062,-48.340,23.438
1585002100.738,13.672,20.508,29.785,54.688,1.465
1585002100.742,22.461,23.926,32.715,94.727,33.203
1585002100.746,26.855,36.133,43.457,8.301,31.738
1585002100.750,26.367,35.645,43.457,-62.012,16.602
1585002100.754,21.973,22.461,33.691,25.391,12.695
1585002100.758,22.949,18.555,32.227,96.191,41.992
1585002100.762,23.926,33.691,43.945,39.551,10.254
1585002100.766,14.160,41.504,48.828,-47.852,20.996
1585002100.769,15.625,29.785,38.574,0.488,39.551
1585002100.773,25.879,25.391,33.691,97.656,-0.488
1585002100.777,33.203,33.691,38.086,71.777,10.254
1585002100.781,27.344,38.086,45.410,-45.410,16.113
1585002100.785,11.230,28.320,39.062,-45.898,0.488
1585002100.789,16.602,20.996,28.320,68.359,-3.906
1585002100.793,33.691,27.832,36.133,89.844,2.930
1585002100.797,36.621,40.039,49.805,-5.371,16.602
1585002100.801,25.879,37.109,46.387,-51.758,20.508
1585002100.805,24.414,24.902,35.645,42.480,39.062
1585002100.809,46.387,27.344,41.016,100.586,16.113
1585002100.812,40.039,40.039,57.129,20.996,-1.953
1585002100.816,20.508,41.016,53.711,-66.406,25.879
1585002100.820,18.555,27.344,40.527,11.230,-24.902
1585002100.824,33.203,26.855,47.852,106.445,-39.551
1585002100.828,44.922,38.086,62.500,65.918,8.789
1585002100.832,40.527,42.969,71.777,-29.785,20.996
1585002100.836,30.762,33.203,61.523,-6.348,26.855
1585002100.840,19.531,25.391,54.199,80.078,33.691
1585002100.844,29.297,34.668,72.266,69.824,75.684
1585002100.848,31.250,44.434,82.520,-27.832,29.297
1585002100.852,27.344,38.574,71.777,-24.414,6.348
1585002100.855,30.762,25.879,65.430,84.961,50.781
1585002100.859,28.809,28.320,74.219,93.262,47.852
1585002100.863,20.020,39.062,82.031,-14.160,44.922
1585002100.867,11.719,37.109,76.172,-56.641,-26.855
1585002100.871,23.926,25.879,63.965,48.828,0.488
1585002100.875,34.180,28.320,61.523,103.027,96.191
1585002100.879,35.156,40.039,72.266,27.344,76.660
1585002100.883,38.086,41.992,74.219,-47.363,62.012
1585002100.887,30.273,30.762,62.500,21.973,40.527
1585002100.891,27.832,26.367,62.500,103.516,3.418
1585002100.894,37.598,32.227,73.730,64.941,-2.441
1585002100.898,39.551,36.621,79.102,-31.250,-5.371
1585002100.902,37.109,25.879,73.730,0.488,32.715
1585002100.906,25.391,16.602,64.941,86.426,77.148
1585002100.910,20.020,23.926,63.477,68.848,35.156
1585002100.914,19.531,35.156,71.777,-26.855,30.762
1585002100.918,9.277,29.785,64.941,-47.363,75.684
1585002100.922,16.113,20.020,50.781,54.688,42.480
1585002100.926,23.438,24.414,55.176,88.379,28.320
1585002100.930,29.297,33.691,71.289,0.977,21.484
1585002100.934,24.902,34.668,64.941,-47.363,16.602
1585002100.937,8.789,24.414,49.316,42.969,-12.695
1585002100.941,26.367,20.020,50.781,110.352,81.543
1585002100.945,38.574,30.762,62.012,47.363,100.098
1585002100.949,24.414,38.574,70.801,-43.945,-26.855
1585002100.953,13.672,26.855,55.664,2.930,-20.508
1585002100.957,13.184,19.531,40.039,81.543,4.395
1585002100.961,19.531,30.273,47.363,50.293,-1.953
1585002100.965,25.391,39.062,59.570,-41.016,-13.184
1585002100.969,28.320,31.738,54.688,-12.695,39.551
1585002100.973,37.598,24.902,43.945,92.773,59.570
1585002100.977,40.527,29.785,48.828,87.891,-2.441
1585002100.980,31.250,37.109,57.129,-15.137,38.574
1585002100.984,16.113,32.227,46.387,-46.875,63.477
1585002100.988,15.137,20.020,32.715,46.387,-4.883
1585002100.992,35.645,22.461,38.086,84.961,-2.441
1585002100.996,29.785,34.668,48.828,7.812,10.742
1585002101.000,13.672,35.645,46.387,-54.199,52.734
1585002101.004,15.625,25.879,33.691,28.809,81.543
1585002101.008,30.273,24.414,33.203,111.816,69.824
1585002101.012,42.969,31.250,48.340,53.223,16.113
1585002101.016,26.367,35.156,50.293,-51.758,13.672
1585002101.019,24.902,26.367,39.062,3.418,51.270
1585002101.023,42.480,22.949,34.668,103.027,36.621
1585002101.027,36.621,32.715,40.039,71.289,69.824
1585002101.031,26.367,41.016,46.875,-40.527,28.320
1585002101.035,22.949,33.691,40.039,-31.738,8.301
1585002101.039,28.320,26.367,31.250,83.008,22.461
1585002101.043,38.574,33.691,37.598,98.145,17.578
1585002101.047,40.039,41.992,48.828,3.906,22.949
1585002101.051,34.668,36.621,43.457,-35.645,-4.883
1585002101.055,32.715,25.879,33.203,58.594,-20.996
1585002101.059,33.203,30.273,31.250,102.051,10.742
1585002101.062,25.879,39.551,40.039,14.160,-24.902
1585002101.066,16.602,42.969,45.898,-56.152,-15.137
1585002101.070,25.391,31.738,36.133,22.461,-5.859
1585002101.074,38.574,25.391,31.738,101.074,-27.344
1585002101.078,31.738,35.156,38.086,56.152,11.719
1585002101.082,38.574,43.457,45.410,-28.809,24.902
1585002101.086,46.875,31.738,36.621,12.207,21.484
1585002101.090,30.273,21.484,28.320,88.867,22.949
1585002101.094,25.879,28.809,34.180,56.641,30.273
1585002101.098,18.555,40.039,39.062,-43.457,56.641
1585002101.102,13.672,36.621,28.809,-44.922,26.855
1585002101.105,24.902,22.949,16.602,65.430,28.320
1585002101.109,39.062,25.879,26.855,99.121,45.410
1585002101.113,29.297,35.156,40.039,-2.441,19.043
1585002101.117,8.789,33.203,32.227,-63.477,15.625
1585002101.121,10.742,23.438,18.066,29.297,41.016
1585002101.125,27.344,23.926,23.438,93.262,22.461
1585002101.129,37.109,34.668,35.645,23.438,32.715
1585002101.133,23.926,38.574,34.668,-62.988,-10.254
1585002101.137,5.371,28.809,24.414,8.789,-14.648
1585002101.141,19.531,24.414,20.020,96.191,44.434
1585002101.144,33.691,31.738,30.273,45.410,35.156
1585002101.148,15.625,36.133,37.598,-57.617,15.625
1585002101.152,1.465,24.902,24.902,-25.879,-17.578
1585002101.156,16.113,20.020,20.020,84.473,15.625
1585002101.160,22.949,30.762,27.832,73.242,9.766
1585002101.164,11.719,38.086,35.645,-32.227,44.922
1585002101.168,14.160,33.691,30.762,-41.504,122.070
1585002101.172,26.855,25.879,21.484,64.941,67.871
1585002101.176,45.410,28.320,25.391,93.750,31.738
1585002101.180,36.621,36.621,34.180,-3.418,44.922
1585002101.184,14.648,35.645,34.668,-55.176,-0.488
1585002101.187,19.531,23.926,24.902,38.086,-5.859
1585002101.191,27.832,25.391,24.902,91.797,7.812
1585002101.195,22.949,36.621,32.715,15.625,6.348
1585002101.199,18.555,40.039,37.109,-63.965,-29.785
1585002101.203,22.949,30.273,30.273,10.254,-1.953
1585002101.207,44.434,24.414,28.320,114.746,58.105
1585002101.211,65.430,32.227,39.551,82.031,18.066
1585002101.215,31.738,40.527,46.387,-32.715,60.059
1585002101.219,3.906,35.156,34.180,-26.855,104.980
1585002101.223,17.090,28.809,23.926,75.195,51.758
1585002101.227,28.809,33.691,30.273,81.055,19.531
1585002101.230,28.809,39.551,41.992,-13.672,12.695
1585002101.234,27.344,35.645,37.598,-31.738,37.109
1585002101.238,39.551,24.902,24.414,63.965,50.293
1585002101.242,53.223,27.344,26.855,108.398,-4.883
1585002101.246,48.340,41.016,42.480,29.785,-18.066
1585002101.250,24.902,37.109,45.410,-47.363,-1.465
1585002101.254,3.418,21.973,30.762,28.809,38.086
1585002101.258,15.625,24.414,25.879,100.586,23.438
1585002101.262,32.715,37.109,38.574,46.875,-48.340
1585002101.266,24.902,38.574,41.992,-46.875,14.160
1585002101.269,34.180,28.320,30.273,2.930,48.828
1585002101.273,47.852,21.484,24.902,95.703,19.531
1585002101.277,30.762,29.785,32.715,57.129,52.246
1585002101.281,19.043,41.992,40.527,-56.641,58.105
1585002101.285,15.625,32.715,28.809,-52.246,5.371
1585002101.289,20.020,23.438,20.020,68.848,2.930
1585002101.293,29.785,31.250,27.344,86.426,44.922
1585002101.297,29.297,43.945,35.156,-17.578,27.832
1585002101.301,10.742,38.574,29.297,-57.129,9.277
1585002101.305,-0.977,23.438,17.578,36.133,24.902
1585002101.309,13.672,25.879,19.043,82.031,47.363
1585002101.312,23.438,38.574,31.250,3.906,38.086
1585002101.316,11.230,41.504,34.180,-59.570,20.996
1585002101.320,9.277,29.297,22.949,16.113,29.297
1585002101.324,17.578,28.320,22.461,85.449,14.160
1585002101.328,18.555,38.574,36.133,28.320,-5.371
1585002101.332,11.719,41.016,41.504,-67.871,-21.484
1585002101.336,14.160,31.738,31.250,-17.090,-3.418
1585002101.340,26.367,26.855,25.391,87.891,10.254
1585002101.344,35.645,33.691,36.621,79.590,-6.348
1585002101.348,30.762,39.062,46.387,-23.926,49.805
1585002101.352,17.578,32.715,36.621,-40.527,46.875
1585002101.355,13.672,24.902,23.438,52.734,22.461
1585002101.359,12.695,30.273,25.879,67.383,23.926
1585002101.363,21.973,40.527,35.156,-23.926,2.441
1585002101.367,14.648,38.574,33.691,-54.199,-20.020
1585002101.371,16.113,26.855,25.391,50.781,20.508
1585002101.375,32.715,25.879,29.297,107.910,79.102
1585002101.379,21.973,34.668,41.016,29.785,56.152
1585002101.383,17.578,37.109,45.898,-51.270,31.738
1585002101.387,20.996,25.391,35.645,12.695,24.902
1585002101.391,27.344,19.531,24.902,86.914,22.461
1585002101.394,40.527,31.738,37.109,50.781,55.664
1585002101.398,33.691,40.527,48.828,-41.504,68.848
1585002101.402,20.020,32.227,35.645,-7.324,72.754
1585002101.406,25.391,20.996,28.320,104.004,33.203
1585002101.410,26.855,20.508,40.039,90.332,-52.246
1585002101.414,21.484,32.715,43.457,-32.715,-50.781
1585002101.418,22.461,33.203,29.297,-48.828,16.113
1585002101.422,30.273,25.879,17.090,59.082,40.527
1585002101.426,45.410,29.785,22.949,88.867,-1.953
1585002101.430,43.457,38.574,39.062,2.441,47.363
1585002101.434,33.691,36.133,36.133,-56.641,55.664
1585002101.437,30.762,22.461,22.949,40.527,3.418
1585002101.441,46.387,25.391,25.879,120.605,52.246
1585002101.445,59.570,37.598,37.598,55.176,54.688
1585002101.449,34.180,38.086,38.574,-36.621,18.066
1585002101.453,9.766,25.879,22.949,14.160,21.973
1585002101.457,23.926,23.438,18.066,105.957,52.734
1585002101.461,41.504,36.133,28.320,75.684,80.566
1585002101.465,41.504,45.898,37.109,-39.551,63.965
1585002101.469,21.973,31.738,27.344,-22.461,27.832
1585002101.473,18.066,21.484,19.043,90.332,48.828
1585002101.477,36.133,30.273,27.344,86.914,39.062
1585002101.480,32.227,34.668,34.180,-20.020,8.301
1585002101.484,25.391,30.762,29.297,-29.785,61.523
1585002101.488,31.738,22.461,18.555,77.148,46.875
1585002101.492,35.156,25.391,21.973,96.680,37.598
1585002101.496,20.508,35.645,30.762,-3.418,39.551
1585002101.500,11.719,33.203,26.367,-61.035,46.875
1585002101.504,26.367,22.949,16.113,36.621,15.625
1585002101.508,46.875,23.926,20.508,110.352,-58.594
1585002101.512,52.246,34.668,30.762,41.992,-39.062
1585002101.516,16.113,39.062,29.785,-56.641,-20.020
1585002101.519,11.230,29.785,19.043,-1.465,50.293
1585002101.523,34.668,22.461,14.160,90.332,78.613
1585002101.527,37.598,30.273,21.973,64.453,28.320
1585002101.531,28.320,39.551,35.156,-34.180,44.922
1585002101.535,15.625,31.250,28.320,-24.902,36.621
1585002101.539,32.227,22.461,16.113,86.914,43.945
1585002101.543,50.293,29.297,24.414,95.703,50.781
1585002101.547,41.504,38.086,36.621,3.418,28.809
1585002101.551,37.598,36.133,33.691,-20.996,51.270
1585002101.555,40.039,25.879,22.949,67.383,73.242
1585002101.559,41.504,24.414,22.949,100.098,46.875
1585002101.562,32.227,37.598,30.273,14.648,-28.809
1585002101.566,21.973,38.574,34.180,-53.223,-6.348
1585002101.570,20.996,24.902,23.438,23.926,59.570
1585002101.574,48.828,25.391,21.484,109.863,25.391
1585002101.578,53.223,36.621,33.203,59.570,-10.254
1585002101.582,24.902,40.039,37.598,-44.922,-37.598
1585002101.586,20.020,30.762,27.832,3.418,-16.113
1585002101.590,30.762,24.414,23.438,106.934,0.488
1585002101.594,43.945,32.715,33.203,84.473,3.906
1585002101.598,34.668,41.992,37.598,-31.250,-5.371
1585002101.602,24.902,33.203,28.809,-37.109,31.250
1585002101.605,37.598,21.973,20.996,72.754,65.918
1585002101.609,42.480,26.855,28.320,92.773,23.438
1585002101.613,34.668,35.156,37.109,-5.859,25.879
1585002101.617,24.902,30.273,30.273,-43.457,65.918
1585002101.621,33.203,20.020,24.902,66.895,-13.184
1585002101.625,42.480,20.996,27.344,118.164,-42.969
1585002101.629,35.156,31.250,34.668,32.227,3.418
1585002101.633,22.949,34.180,37.109,-48.828,4.883
1585002101.637,11.719,23.926,22.949,13.184,11.230
1585002101.641,13.672,18.555,19.043,95.703,39.062
1585002101.644,29.297,26.367,33.203,62.012,39.551
1585002101.648,38.086,35.156,41.992,-32.715,-13.672
1585002101.652,37.598,29.785,32.715,2.930,-26.367
1585002101.656,38.574,20.508,22.461,98.145,-1.465
1585002101.660,32.227,20.508,28.809,75.195,-17.090
1585002101.664,19.531,29.297,41.504,-29.785,-38.574
1585002101.668,10.742,24.414,36.621,-47.363,-22.461
1585002101.672,9.277,10.254,25.879,58.105,-4.395
1585002101.676,31.738,14.648,31.738,87.402,29.785
1585002101.680,39.062,30.273,47.363,-0.488,26.855
1585002101.684,16.602,31.738,46.875,-48.340,-5.859
1585002101.687,13.184,20.508,33.203,32.715,-20.020
1585002101.691,20.508,17.090,34.668,90.332,-0.488
1585002101.695,30.273,26.855,48.340,32.227,34.668
1585002101.699,27.832,34.668,54.688,-45.898,-22.949
1585002101.703,18.066,20.020,39.551,14.648,-29.785
1585002101.707,34.180,14.160,35.645,109.375,22.461
1585002101.711,28.320,23.926,50.293,72.754,14.648
1585002101.715,15.137,30.762,56.152,-41.992,28.320
1585002101.719,15.625,24.414,43.457,-25.391,80.566
1585002101.723,20.508,17.090,35.156,86.914,79.102
1585002101.727,34.668,25.391,46.387,93.750,40.039
1585002101.730,31.738,35.645,58.105,-14.648,1.465
1585002101.734,6.348,30.273,50.781,-46.875,35.645
1585002101.738,13.672,20.996,33.691,52.734,46.387
1585002101.742,38.574,25.879,36.133,90.332,41.016
1585002101.746,34.668,37.598,52.246,2.441,17.090
1585002101.750,19.043,32.715,49.805,-61.523,17.578
1585002101.754,27.344,17.578,35.645,32.227,2.930
1585002101.758,43.945,18.555,40.527,111.328,-33.203
1585002101.762,39.551,30.762,51.758,35.645,-15.625
1585002101.766,14.648,33.203,45.898,-76.660,12.695
1585002101.769,12.695,22.461,32.715,-13.184,40.527
1585002101.773,25.879,19.043,29.297,88.867,-3.418
1585002101.777,32.715,23.926,36.621,53.223,14.160
1585002101.781,39.062,30.762,43.945,-42.969,61.035
1585002101.785,22.461,26.367,37.109,-18.555,38.574
1585002101.789,17.578,17.090,30.273,88.379,54.688
1585002101.793,24.414,21.973,34.668,91.309,53.223
1585002101.797,12.695,30.273,37.598,-24.902,47.363
1585002101.801,-0.488,24.414,28.809,-66.895,57.129
1585002101.805,5.371,14.160,23.926,40.039,26.855
1585002101.809,25.391,18.066,28.320,83.008,-2.930
1585002101.812,22.949,28.320,34.180,1.465,20.996
1585002101.816,13.184,29.785,35.156,-58.105,74.707
1585002101.820,28.320,19.531,29.297,25.879,52.246
1585002101.824,45.410,19.531,28.809,98.145,47.852
1585002101.828,38.574,33.691,37.598,41.504,19.043
1585002101.832,24.414,39.551,41.992,-59.082,-27.344
1585002101.836,9.277,29.785,28.809,-20.508,-15.137
1585002101.840,14.648,24.414,19.043,82.520,-15.137
1585002101.844,23.438,32.227,28.809,62.500,46.875
1585002101.848,20.996,41.016,40.039,-40.527,90.820
1585002101.852,20.996,32.227,32.715,-40.039,-7.324
1585002101.855,23.438,19.043,20.020,54.688,-35.156
1585002101.859,23.438,23.926,25.391,76.172,70.312
1585002101.863,19.043,37.109,37.598,-9.277,97.656
1585002101.867,19.043,36.133,35.156,-48.340,36.621
1585002101.871,20.508,22.461,23.926,46.387,58.105
1585002101.875,33.691,25.391,27.832,95.215,45.898
1585002101.879,38.086,39.551,41.504,19.043,1.953
1585002101.883,21.484,41.016,41.504,-51.758,13.184
1585002101.887,15.137,25.391,30.762,24.414,38.086
1585002101.891,21.484,19.531,28.809,106.934,31.250
1585002101.894,28.320,28.809,41.016,53.223,21.973
1585002101.898,21.973,34.180,45.898,-58.105,-0.488
1585002101.902,12.207,23.926,30.762,-18.066,36.133
1585002101.906,27.344,21.973,23.926,88.379,86.914
1585002101.910,27.344,35.156,34.180,65.430,-1.953
1585002101.914,11.230,41.016,41.504,-50.781,-9.277
1585002101.918,9.277,30.762,30.762,-54.688,19.043
1585002101.922,19.531,17.578,25.879,65.918,35.156
1585002101.926,31.738,21.484,39.062,91.797,42.480
1585002101.930,24.902,35.156,50.781,-5.371,44.922
1585002101.934,19.531,34.180,48.828,-56.152,70.801
1585002101.937,19.531,21.973,37.598,40.527,29.297
1585002101.941,21.973,19.531,39.551,97.656,26.855
1585002101.945,10.254,26.367,48.340,16.113,70.312
1585002101.949,0.488,32.715,42.969,-61.523,48.340
1585002101.953,12.695,22.461,28.809,12.207,-16.113
1585002101.957,24.902,19.043,26.855,104.492,-21.484
1585002101.961,28.809,29.785,36.621,65.918,42.969
1585002101.965,23.438,34.668,42.480,-43.457,65.918
1585002101.969,12.695,26.367,34.180,-20.020,34.668
1585002101.973,8.789,17.090,25.879,79.102,10.254
1585002101.977,20.996,23.438,33.203,67.383,-21.973
1585002101.980,19.043,35.156,41.992,-33.203,-29.785
1585002101.984,15.625,27.344,36.133,-45.410,32.227
1585002101.988,26.855,13.184,25.879,59.570,99.609
1585002101.992,29.297,15.137,29.297,87.402,57.617
1585002101.996,20.996,30.762,41.504,-1.465,19.043
1585002102.000,0.488,31.250,38.086,-64.941,7.812
1585002102.004,1.465,18.066,24.414,21.484,1.953
1585002102.008,23.438,19.043,24.902,104.004,14.160
1585002102.012,28.809,31.738,37.109,38.574,79.590
1585002102.016,23.926,38.086,42.969,-53.223,65.918
1585002102.019,25.879,26.367,31.250,8.301,61.035
1585002102.023,25.391,19.531,26.855,96.680,81.055
1585002102.027,29.297,24.414,37.109,62.500,68.359
1585002102.031,34.180,31.250,46.387,-40.527,83.008
1585002102.035,12.207,22.949,34.180,-31.250,63.965
1585002102.039,3.906,17.578,22.461,66.895,1.953
1585002102.043,15.137,24.414,32.227,71.289,-26.855
1585002102.047,14.648,33.691,41.992,-20.996,29.785
1585002102.051,0.488,30.273,36.133,-50.293,38.574
1585002102.055,6.348,18.555,25.391,47.852,39.062
1585002102.059,22.461,20.996,29.785,91.309,65.918
1585002102.062,24.902,32.227,41.016,4.883,33.203
1585002102.066,12.207,30.273,40.039,-61.523,-6.348
1585002102.070,17.578,19.043,28.809,26.367,33.203
1585002102.074,45.898,21.973,32.715,110.352,30.762
1585002102.078,39.062,32.715,39.551,51.270,1.465
1585002102.082,18.555,36.133,42.969,-48.340,7.812
1585002102.086,18.066,23.926,32.715,-3.418,13.672
1585002102.090,18.066,14.160,21.973,92.773,-7.324
1585002102.094,30.273,24.414,32.715,66.895,-24.902
1585002102.098,24.902,36.133,41.504,-42.480,48.340
1585002102.102,16.602,31.250,33.203,-29.785,15.625
1585002102.105,20.508,24.902,24.414,78.613,-4.883
1585002102.109,21.484,28.809,31.250,82.520,27.832
1585002102.113,21.973,34.180,41.504,-15.625,20.996
1585002102.117,16.602,34.668,36.133,-41.016,69.824
1585002102.121,23.438,27.344,24.902,60.547,54.688
1585002102.125,28.809,22.949,28.809,108.398,72.754
1585002102.129,21.484,28.809,38.086,29.297,33.691
1585002102.133,16.113,31.738,40.039,-46.387,6.836
1585002102.137,18.066,23.438,30.273,22.949,61.035
1585002102.141,29.297,19.043,22.461,96.191,20.996
1585002102.144,40.527,27.832,30.762,54.688,12.207
1585002102.148,37.109,35.645,36.133,-41.992,28.809
1585002102.152,32.715,30.273,24.414,-3.418,2.441
1585002102.156,35.645,24.902,18.555,97.168,-29.297
1585002102.160,23.926,30.762,27.344,73.730,6.348
1585002102.164,10.742,38.086,34.180,-36.133,23.926
1585002102.168,22.949,36.133,27.344,-37.598,61.035
1585002102.172,41.016,27.344,19.531,74.707,44.434
1585002102.176,43.945,27.344,28.320,98.145,-14.648
1585002102.180,44.922,39.551,42.480,1.465,35.645
1585002102.184,28.320,41.016,35.645,-52.734,14.648
1585002102.187,14.160,25.391,19.043,38.086,11.230
1585002102.191,29.297,25.879,20.508,97.168,50.293
1585002102.195,34.180,39.062,32.715,23.926,64.453
1585002102.199,35.645,43.945,39.062,-47.363,28.809
1585002102.203,35.645,30.762,29.297,24.414,-38.574
1585002102.207,32.227,24.414,24.414,100.586,15.625
1585002102.211,41.016,38.574,34.180,57.617,37.109
1585002102.215,44.922,44.434,42.480,-44.922,-30.273
1585002102.219,31.738,31.250,34.668,-11.230,41.016
1585002102.223,36.133,24.902,27.344,101.562,96.680
1585002102.227,44.434,35.156,38.086,86.426,4.883
1585002102.230,30.273,41.016,49.805,-17.090,13.672
1585002102.234,20.996,33.691,44.922,-20.996,55.176
1585002102.238,35.645,24.902,39.062,88.867,64.453
1585002102.242,48.828,31.738,43.457,113.770,54.199
1585002102.246,40.527,42.969,49.316,18.555,13.184
1585002102.250,33.691,41.504,46.875,-37.109,9.766
1585002102.254,36.133,29.785,34.180,46.875,33.203
1585002102.258,34.180,29.785,33.203,99.121,39.551
1585002102.262,30.762,38.086,47.363,32.715,22.949
1585002102.266,38.086,38.574,53.711,-42.480,22.949
1585002102.269,44.434,29.785,44.434,29.785,51.758
1585002102.273,38.574,26.855,37.109,109.375,44.434
1585002102.277,35.645,31.738,40.527,62.988,29.785
1585002102.281,45.898,39.551,49.805,-22.461,30.762
1585002102.285,46.387,33.203,43.457,12.695,9.277
1585002102.289,35.645,22.949,30.273,106.445,-25.879
1585002102.293,25.879,26.367,33.203,87.891,-14.648
1585002102.297,28.320,39.062,42.969,-18.066,21.484
1585002102.301,29.297,38.086,40.039,-34.668,36.133
1585002102.305,32.227,23.438,28.320,76.172,13.672
1585002102.309,48.828,26.855,33.203,119.141,1.953
1585002102.312,48.340,41.016,42.480,28.809,8.301
1585002102.316,29.785,40.039,38.086,-50.293,56.152
1585002102.320,24.902,28.809,24.902,23.926,54.688
1585002102.324,38.086,25.391,20.996,105.957,23.438
1585002102.328,40.527,34.180,29.785,50.781,20.020
1585002102.332,34.668,38.086,31.738,-46.387,2.441
1585002102.336,27.344,27.344,22.461,4.395,-1.953
1585002102.340,33.203,19.531,19.043,100.586,-3.418
1585002102.344,43.945,27.344,24.414,72.266,28.320
1585002102.348,32.715,40.039,31.738,-35.156,41.504
1585002102.352,30.762,34.180,27.344,-18.066,39.062
1585002102.355,54.199,27.832,21.484,93.262,39.062
1585002102.359,54.688,33.691,25.391,92.773,19.531
1585002102.363,35.156,42.480,32.227,-15.137,9.277
1585002102.367,30.762,37.109,30.762,-42.480,13.672
1585002102.371,34.668,23.926,24.414,68.359,25.391
1585002102.375,36.133,27.832,23.926,102.051,52.246
1585002102.379,26.367,40.039,30.762,4.883,60.547
1585002102.383,13.672,41.016,30.762,-64.453,19.531
1585002102.387,31.738,31.738,20.508,20.996,-6.836
1585002102.391,45.898,29.785,20.996,101.074,3.906
1585002102.394,36.133,39.551,34.668,47.363,56.152
1585002102.398,28.809,44.922,42.969,-46.875,52.734
1585002102.402,26.367,35.156,36.133,1.465,26.855
1585002102.406,40.039,27.832,30.273,99.609,37.109
1585002102.410,53.711,34.668,36.621,78.613,32.715
1585002102.414,42.480,42.969,45.410,-19.531,9.277
1585002102.418,29.297,38.574,40.039,-19.043,8.301
1585002102.422,32.715,28.320,24.902,78.125,37.109
1585002102.426,33.691,29.785,26.367,89.355,64.453
1585002102.430,27.832,42.480,40.039,-1.465,35.645
1585002102.434,22.949,42.969,36.133,-44.922,43.945
1585002102.437,19.531,27.832,20.020,48.340,52.734
1585002102.441,30.273,23.926,22.461,107.910,6.836
1585002102.445,32.715,34.668,35.156,36.133,38.574
1585002102.449,27.344,41.016,37.598,-43.945,49.316
1585002102.453,27.832,28.320,24.414,16.602,32.227
1585002102.457,23.438,17.578,17.090,98.633,32.227
1585002102.461,23.438,28.320,29.785,58.105,22.461
1585002102.465,25.879,40.527,38.574,-41.992,21.973
1585002102.469,23.438,31.738,23.926,-15.625,22.949
1585002102.473,20.508,21.973,9.766,82.520,41.992
1585002102.477,26.367,26.367,16.113,68.848,19.531
1585002102.480,32.715,37.598,28.809,-31.738,6.348
1585002102.484,19.043,32.227,24.902,-38.574,-2.441
1585002102.488,19.043,20.508,14.160,69.336,-20.996
1585002102.492,34.180,23.926,19.531,97.168,-8.301
1585002102.496,31.250,36.621,29.785,9.766,35.156
1585002102.500,27.344,39.551,27.344,-40.527,20.996
1585002102.504,27.832,24.414,13.672,40.527,2.441
1585002102.508,39.551,23.438,13.672,102.051,9.277
1585002102.512,44.434,40.039,29.297,36.621,-14.160
1585002102.516,39.551,41.992,29.297,-48.828,29.297
1585002102.519,42.969,32.715,18.066,28.320,76.660
1585002102.523,55.176,27.832,17.578,126.953,30.273
1585002102.527,54.199,34.180,27.344,83.496,29.785
1585002102.531,34.668,42.969,32.227,-34.180,41.992
1585002102.535,30.762,34.668,19.531,-16.602,65.430
1585002102.539,35.645,22.949,12.207,95.215,53.711
1585002102.543,44.434,26.367,20.996,95.215,30.273
1585002102.547,39.551,36.621,30.762,-11.719,16.113
1585002102.551,20.508,33.691,28.320,-38.086,46.875
1585002102.555,27.832,26.367,19.531,63.965,19.531
1585002102.559,32.227,28.809,20.020,98.145,-15.137
1585002102.562,31.250,40.039,29.297,17.090,60.547
1585002102.566,31.738,40.039,30.273,-35.645,73.242
1585002102.570,28.809,27.832,19.531,43.457,1.953
1585002102.574,41.016,26.367,17.578,106.445,2.441
1585002102.578,40.039,35.645,30.762,52.734,58.105
1585002102.582,41.992,37.598,40.039,-31.250,-18.066
1585002102.586,37.598,27.832,26.855,16.602,-33.691
1585002102.590,28.809,25.391,20.508,102.539,28.809
1585002102.594,19.531,32.227,28.809,70.312,9.277
1585002102.598,15.625,39.551,35.645,-37.109,11.230
1585002102.602,23.438,30.762,30.273,-23.926,18.555
1585002102.605,32.227,18.555,20.996,87.402,27.344
1585002102.609,45.898,25.879,27.832,103.516,29.785
1585002102.613,48.340,38.574,36.133,2.930,32.715
1585002102.617,28.809,35.156,28.809,-47.363,14.648
1585002102.621,17.090,25.879,15.137,47.363,-53.711
1585002102.625,30.273,27.832,19.043,102.539,-15.625
1585002102.629,33.691,38.086,30.762,24.902,75.684
1585002102.633,20.996,40.039,31.250,-51.758,35.156
1585002102.637,23.926,29.297,20.996,24.902,-5.859
1585002102.641,35.645,25.391,17.578,109.863,25.879
1585002102.644,33.691,35.156,30.273,55.664,12.207
1585002102.648,22.949,37.598,32.715,-57.129,2.930
1585002102.652,15.625,19.531,14.648,-18.066,54.688
1585002102.656,34.180,13.184,8.301,89.844,14.648
1585002102.660,35.645,26.367,17.578,71.289,-25.391
1585002102.664,20.508,35.645,25.391,-31.250,20.508
1585002102.668,22.461,28.320,19.531,-31.738,22.949
1585002102.672,40.527,20.996,12.695,87.402,-19.043
1585002102.676,44.922,25.879,18.555,104.492,26.855
1585002102.680,32.715,36.621,29.297,-2.441,60.547
1585002102.684,29.785,33.203,26.367,-36.133,70.801
1585002102.687,37.598,23.438,12.207,55.664,65.430
1585002102.691,30.762,25.879,12.695,89.844,40.039
1585002102.695,25.879,34.180,21.973,0.977,39.062
1585002102.699,21.484,36.133,22.949,-68.359,47.852
1585002102.703,18.066,26.367,12.695,13.184,13.184
1585002102.707,32.227,21.484,12.207,99.121,-20.020
1585002102.711,35.156,28.320,21.484,56.641,41.504
1585002102.715,32.227,36.621,29.785,-41.992,23.926
1585002102.719,37.109,30.273,22.461,-9.766,35.156
1585002102.723,38.574,24.902,11.230,91.797,28.320
1585002102.727,35.645,32.715,14.160,66.406,-36.621
1585002102.730,19.043,41.016,24.902,-46.875,-45.410
1585002102.734,0.488,35.645,22.461,-58.594,-32.227
1585002102.738,10.742,23.438,13.184,44.922,-8.301
1585002102.742,29.297,25.879,17.578,77.637,2.441
1585002102.746,41.016,39.062,31.250,-2.930,4.883
1585002102.750,35.645,36.133,31.738,-49.805,49.805
1585002102.754,27.832,23.438,18.066,43.945,93.262
1585002102.758,41.016,20.020,17.090,107.422,56.641
1585002102.762,39.551,30.273,29.785,34.180,22.461
1585002102.766,17.578,39.551,30.273,-60.547,32.715
1585002102.769,-0.977,30.273,14.160,-11.719,21.973
1585002102.773,18.555,22.461,10.742,75.195,51.270
1585002102.777,40.527,32.227,25.879,54.199,55.176
1585002102.781,27.344,41.016,33.691,-49.316,41.016
1585002102.785,19.531,31.250,21.484,-36.133,25.391
1585002102.789,18.066,22.461,10.742,75.195,41.992
1585002102.793,21.484,29.785,17.578,77.637,70.312
1585002102.797,26.367,38.086,28.809,-20.996,41.016
1585002102.801,12.207,30.273,22.949,-46.875,21.973
1585002102.805,21.973,20.996,9.766,55.176,32.227
1585002102.809,32.227,26.855,14.648,93.262,47.363
1585002102.812,14.160,37.109,26.855,-2.441,52.246
1585002102.816,10.254,35.156,22.949,-65.918,37.598
1585002102.820,21.973,24.414,13.184,31.250,-7.324
1585002102.824,30.273,25.391,18.066,107.422,-3.906
1585002102.828,21.973,36.133,26.855,36.133,-15.137
1585002102.832,17.090,39.551,27.832,-56.641,-19.043
1585002102.836,21.484,27.344,19.043,5.859,-18.066
1585002102.840,41.016,24.414,12.695,96.191,-37.109
1585002102.844,43.945,32.715,20.020,58.594,-9.277
1585002102.848,20.508,41.016,27.832,-46.875,18.066
1585002102.852,22.461,35.156,23.438,-29.785,47.363
1585002102.855,38.086,23.438,18.066,83.008,78.613
1585002102.859,43.945,27.832,24.902,103.027,47.852
1585002102.863,39.062,41.992,35.645,10.254,31.738
1585002102.867,24.902,41.992,30.273,-41.504,28.320
1585002102.871,19.043,30.762,16.602,41.016,15.137
1585002102.875,23.438,29.785,16.602,82.520,56.641
1585002102.879,33.691,41.016,26.367,6.348,91.309
1585002102.883,35.156,41.504,31.250,-47.363,30.762
1585002102.887,36.621,29.785,23.926,35.645,-20.020
1585002102.891,39.062,26.367,16.602,95.215,-19.043
1585002102.894,20.508,35.156,24.414,37.109,20.020
1585002102.898,16.113,40.527,32.715,-53.223,32.227
1585002102.902,26.855,30.762,26.855,0.488,19.531
1585002102.906,35.645,21.973,21.484,102.539,50.293
1585002102.910,31.738,28.809,27.344,69.824,37.109
1585002102.914,21.484,35.645,36.133,-36.621,26.855
1585002102.918,30.273,30.762,30.762,-24.414,-10.254
1585002102.922,28.809,23.438,20.508,87.891,0.000
1585002102.926,25.879,25.879,24.414,92.285,30.273
1585002102.930,28.320,38.086,35.645,-13.672,18.066
1585002102.934,14.648,35.156,31.250,-58.105,19.531
1585002102.937,16.113,22.949,18.555,41.504,-28.809
1585002102.941,24.902,24.414,24.902,108.887,5.371
1585002102.945,26.367,31.250,36.621,28.809,5.859
1585002102.949,19.043,31.250,36.621,-55.176,-15.625
1585002102.953,13.672,21.973,20.996,10.254,-4.395
1585002102.957,14.648,18.066,13.672,87.891,-8.301
1585002102.961,21.484,29.785,28.320,51.270,21.484
1585002102.965,27.832,41.992,42.969,-42.480,35.156
1585002102.969,16.113,30.762,35.156,-10.742,11.719
1585002102.973,20.996,20.020,31.738,99.609,-5.859
1585002102.977,28.809,29.785,46.387,83.496,-9.277
1585002102.980,9.277,37.598,49.805,-42.969,11.230
1585002102.984,-2.441,31.250,40.039,-47.363,18.555
1585002102.988,15.625,24.414,31.738,65.918,47.852
1585002102.992,30.762,27.344,33.691,90.820,27.344
1585002102.996,40.527,35.645,46.875,2.930,30.762
1585002103.000,39.062,32.715,47.852,-46.875,92.773
1585002103.004,28.320,20.508,38.574,43.457,51.758
1585002103.008,28.320,21.484,35.156,100.098,32.715
1585002103.012,28.809,32.715,44.434,28.320,49.805
1585002103.016,16.602,34.180,50.293,-54.199,22.949
1585002103.019,16.113,23.438,40.527,19.043,71.289
1585002103.023,36.621,18.555,38.086,111.328,73.242
1585002103.027,38.574,26.855,41.016,65.430,-1.465
1585002103.031,25.879,38.086,41.992,-44.434,27.832
1585002103.035,15.625,30.762,36.133,-21.484,20.996
1585002103.039,26.855,20.996,28.809,86.914,-23.438
1585002103.043,44.434,28.320,37.109,87.402,9.766
1585002103.047,39.062,40.527,49.805,-14.648,14.160
1585002103.051,14.648,34.668,43.945,-42.480,6.836
1585002103.055,18.555,21.484,30.273,59.570,67.871
1585002103.059,39.062,23.438,32.715,93.750,87.402
1585002103.062,35.645,34.668,44.434,7.324,75.684
1585002103.066,28.809,38.086,47.852,-44.434,80.078
1585002103.070,40.039,25.391,37.109,45.410,73.730
1585002103.074,49.805,20.508,34.668,118.164,99.121
1585002103.078,42.480,36.133,43.945,45.410,64.941
1585002103.082,24.902,43.457,42.969,-55.176,48.340
1585002103.086,13.672,30.273,29.785,0.977,73.242
1585002103.090,24.414,24.902,27.344,98.145,16.602
1585002103.094,42.480,33.203,42.480,78.125,-53.223
1585002103.098,41.992,42.480,49.316,-25.391,1.465
1585002103.102,20.996,35.645,35.645,-27.344,34.180
1585002103.105,21.973,25.391,26.367,76.660,41.504
1585002103.109,31.738,32.715,35.156,89.355,91.309
1585002103.113,31.738,43.945,47.363,-7.812,50.781
1585002103.117,22.949,38.574,41.504,-39.062,75.195
1585002103.121,27.832,28.320,27.344,58.105,83.984
1585002103.125,32.227,30.762,29.785,96.680,18.555
1585002103.129,25.879,43.457,40.527,12.695,-13.184
1585002103.133,19.531,42.969,42.480,-51.270,-5.859
1585002103.137,25.391,30.273,35.156,33.691,4.883
1585002103.141,50.293,27.344,33.203,112.793,-37.109
1585002103.144,51.270,35.156,42.480,55.664,-26.855
1585002103.148,30.762,39.551,47.363,-40.039,55.664
1585002103.152,23.926,30.273,38.086,6.348,64.941
1585002103.156,29.785,25.879,30.273,91.797,44.434
1585002103.160,41.504,34.668,35.645,62.988,24.902
1585002103.164,45.898,46.387,43.945,-32.227,0.488
1585002103.168,36.133,44.922,37.598,-21.973,23.438
1585002103.172,32.227,33.691,25.879,80.078,80.078
1585002103.176,38.574,35.156,32.227,93.750,5.859
1585002103.180,35.156,45.410,46.875,-5.371,-42.969
1585002103.184,22.461,43.945,44.922,-49.316,-32.227
1585002103.187,22.949,30.762,32.227,50.293,-5.371
1585002103.191,26.855,27.832,28.320,102.051,5.859
1585002103.195,34.180,38.574,37.598,22.949,3.906
1585002103.199,36.133,40.527,42.969,-46.875,59.082
1585002103.203,40.527,24.902,32.227,33.203,32.227
1585002103.207,42.969,19.531,31.738,118.164,29.297
1585002103.211,24.414,35.645,40.039,57.129,39.062
1585002103.215,9.766,44.434,41.504,-60.547,14.160
1585002103.219,14.648,34.668,32.227,-23.438,25.879
1585002103.223,36.133,27.344,30.273,95.215,-14.648
1585002103.227,48.828,33.691,41.504,98.633,10.254
1585002103.230,35.645,41.016,47.363,-14.648,68.848
1585002103.234,21.973,34.180,36.621,-36.621,80.566
1585002103.238,31.738,25.879,27.344,67.383,58.594
1585002103.242,32.715,28.809,35.645,95.215,82.031
1585002103.246,28.809,40.527,48.828,6.836,58.594
1585002103.250,29.297,42.480,43.945,-39.551,-17.578
1585002103.254,25.879,30.273,29.785,50.293,-8.789
1585002103.258,31.250,27.832,33.691,103.516,5.859
1585002103.262,31.250,38.086,45.410,28.809,36.621
1585002103.266,23.438,41.016,44.434,-49.316,75.195
1585002103.269,24.902,26.855,34.180,22.949,9.766
1585002103.273,43.457,23.438,29.297,101.562,-42.480
1585002103.277,41.504,35.645,39.551,52.734,-2.441
1585002103.281,15.625,40.527,44.434,-48.340,77.637
1585002103.285,10.742,28.320,34.180,-9.766,56.152
1585002103.289,37.598,22.949,30.273,106.445,36.133
1585002103.293,48.828,31.738,37.109,101.074,8.301
1585002103.297,22.949,37.598,42.480,-23.438,5.371
1585002103.301,0.977,30.762,33.203,-63.965,33.691
1585002103.305,8.789,22.949,20.996,44.922,-5.859
1585002103.309,39.551,28.809,26.855,83.984,-20.020
1585002103.312,41.016,39.062,39.551,4.883,27.832
1585002103.316,21.484,37.598,37.598,-39.551,56.641
1585002103.320,22.461,24.902,25.879,43.945,48.828
1585002103.324,28.320,23.438,29.297,112.793,29.297
1585002103.328,38.086,34.668,43.457,54.199,6.348
1585002103.332,38.086,39.062,47.852,-32.715,-10.254
1585002103.336,28.809,29.785,34.180,13.672,25.879
1585002103.340,25.391,24.414,25.391,87.402,58.594
1585002103.344,34.180,33.203,31.738,56.641,13.672
1585002103.348,33.691,40.039,40.039,-31.250,3.418
1585002103.352,24.902,29.785,33.691,-7.812,37.109
1585002103.355,41.504,19.531,22.461,91.309,46.875
1585002103.359,43.945,29.785,28.809,84.961,42.969
1585002103.363,20.996,40.039,38.086,-23.926,15.625
1585002103.367,15.625,35.645,32.715,-49.805,5.371
1585002103.371,20.020,24.902,23.438,60.059,37.598
1585002103.375,33.691,26.855,29.785,104.980,37.598
1585002103.379,45.410,41.016,44.434,27.344,76.660
1585002103.383,33.691,38.086,47.852,-32.715,94.727
1585002103.387,27.832,23.926,34.180,40.527,36.133
1585002103.391,30.762,26.367,24.414,99.121,11.230
1585002103.394,30.762,42.969,35.645,42.480,12.695
1585002103.398,27.832,46.875,42.969,-51.758,30.762
1585002103.402,20.508,31.738,28.320,2.441,61.035
1585002103.406,33.203,22.949,26.855,114.746,49.805
1585002103.410,46.875,28.809,40.039,87.402,-0.488
1585002103.414,37.109,38.574,48.828,-32.227,5.859
1585002103.418,12.695,32.715,39.062,-36.621,32.227
1585002103.422,15.625,25.879,27.832,65.918,13.184
1585002103.426,33.203,30.762,34.668,83.984,20.020
1585002103.430,36.621,38.086,46.875,-8.301,11.230
1585002103.434,28.809,35.645,41.992,-42.480,19.043
1585002103.437,24.414,26.367,30.762,59.570,41.504
1585002103.441,33.203,28.320,35.156,101.562,28.320
1585002103.445,24.902,36.621,42.969,18.555,49.805
1585002103.449,22.949,33.691,42.969,-41.016,83.984
1585002103.453,37.598,21.484,37.598,41.016,52.246
1585002103.457,39.062,20.996,31.738,99.609,-5.859
1585002103.461,23.438,34.180,32.715,28.809,6.836
1585002103.465,18.555,42.969,41.016,-54.688,-12.695
1585002103.469,15.137,30.273,33.691,-6.836,-29.297
1585002103.473,22.461,20.508,25.391,90.820,18.555
1585002103.477,36.133,24.414,33.203,79.102,65.430
1585002103.480,28.320,31.738,45.898,-20.508,0.488
1585002103.484,21.484,29.297,39.551,-28.809,-34.668
1585002103.488,28.320,20.508,25.391,65.918,-6.348
1585002103.492,20.996,22.949,27.832,77.148,29.297
1585002103.496,20.996,33.203,41.504,-5.371,61.035
1585002103.500,36.133,31.738,41.504,-34.668,33.203
1585002103.504,35.156,20.996,28.809,56.641,28.809
1585002103.508,22.461,22.949,28.809,101.562,54.688
1585002103.512,21.973,35.645,38.574,27.344,51.270
1585002103.516,16.113,38.086,36.621,-55.176,35.156
1585002103.519,19.531,25.879,23.926,8.789,37.109
1585002103.523,33.691,21.484,22.461,99.609,14.648
1585002103.527,38.086,31.738,38.574,66.895,-1.465
1585002103.531,35.156,39.551,47.852,-37.598,29.785
1585002103.535,19.531,28.809,32.715,-24.902,-3.906
1585002103.539,22.949,23.926,26.367,82.031,-29.785
1585002103.543,33.691,33.203,38.574,83.984,29.785
1585002103.547,24.902,41.016,45.410,-20.020,3.418
1585002103.551,21.484,33.691,36.133,-37.109,24.902
1585002103.555,34.180,25.879,26.855,69.336,49.805
1585002103.559,44.434,32.715,32.715,101.074,42.480
1585002103.562,28.320,39.551,43.457,5.371,79.102
1585002103.566,14.160,38.574,40.039,-55.176,150.391
1585002103.570,27.344,31.738,30.762,39.551,132.812
1585002103.574,43.945,32.227,36.621,113.770,27.344
1585002103.578,54.199,38.086,47.852,50.293,31.738
1585002103.582,40.039,40.527,49.316,-37.598,47.852
1585002103.586,15.137,31.738,34.668,5.859,-20.508
1585002103.590,24.414,27.832,28.320,81.055,-26.855
1585002103.594,36.133,35.645,36.133,48.340,20.508
1585002103.598,27.344,41.504,42.969,-42.969,0.977
1585002103.602,30.762,36.133,34.668,-15.625,-39.062
1585002103.605,40.527,24.414,28.809,90.332,-7.324
1585002103.609,39.062,26.855,37.109,88.867,39.062
1585002103.613,28.809,38.086,42.969,-16.602,22.461
1585002103.617,9.766,33.691,36.133,-44.922,17.090
1585002103.621,8.301,21.484,24.414,52.246,4.883
1585002103.625,23.926,21.973,26.367,85.938,-17.578
1585002103.629,30.762,33.203,37.109,5.371,-24.902
1585002103.633,31.250,35.156,40.039,-50.293,24.414
1585002103.637,20.020,25.391,34.180,29.297,35.156
1585002103.641,15.625,20.020,31.250,95.215,31.250
1585002103.644,28.320,25.879,39.062,41.504,9.766
1585002103.648,27.344,31.738,46.387,-49.805,-9.766
1585002103.652,11.719,22.461,33.691,-10.742,41.016
1585002103.656,15.137,13.672,26.367,86.914,42.969
1585002103.660,25.879,20.508,37.598,70.312,28.320
1585002103.664,19.043,31.738,45.410,-36.621,9.766
1585002103.668,20.508,28.809,36.621,-27.344,-13.184
1585002103.672,30.273,23.926,25.391,73.730,-41.016
1585002103.676,26.367,28.320,27.832,69.824,-43.945
1585002103.680,25.391,36.621,41.992,-19.043,9.277
1585002103.684,19.531,33.691,41.504,-48.340,19.043
1585002103.687,23.926,18.555,28.809,46.387,7.324
1585002103.691,29.785,20.508,34.180,98.633,-23.926
1585002103.695,17.090,32.715,47.363,20.996,1.465
1585002103.699,16.113,36.133,46.875,-41.504,51.758
1585002103.703,24.902,25.391,34.668,32.227,-7.324
1585002103.707,28.809,19.531,30.762,97.168,-27.832
1585002103.711,25.879,30.273,40.039,45.898,69.336
1585002103.715,23.438,39.551,42.480,-48.828,54.199
1585002103.719,18.066,31.738,31.738,-7.812,20.020
