timestamps,TP9,AF7,AF8,TP10,Right AUX
1584546772.431,21.484,28.809,30.273,29.785,41.504
1584546772.435,7.812,27.832,31.738,25.391,18.066
1584546772.438,23.438,22.949,27.832,0.977,33.203
1584546772.442,39.551,22.949,22.949,-2.441,50.293
1584546772.446,23.438,23.438,21.973,13.184,48.340
1584546772.450,5.371,21.973,24.414,22.461,40.527
1584546772.454,12.695,20.996,26.367,5.371,-13.672
1584546772.458,35.156,25.391,20.996,-8.301,22.949
1584546772.462,35.645,32.715,26.855,11.230,88.867
1584546772.466,18.066,33.203,35.645,34.668,26.367
1584546772.470,16.602,28.809,30.273,20.996,-35.156
1584546772.474,34.180,26.367,28.809,-0.977,14.160
1584546772.478,38.086,22.461,31.738,7.812,60.059
1584546772.481,15.137,22.949,28.809,34.180,31.738
1584546772.485,3.906,27.832,23.926,29.785,16.113
1584546772.489,23.438,28.809,23.438,0.000,25.879
1584546772.493,35.645,28.320,28.320,0.488,33.203
1584546772.497,20.996,28.809,29.785,30.273,22.461
1584546772.501,6.348,27.344,26.367,28.809,38.086
1584546772.505,20.996,29.297,24.414,1.465,32.227
1584546772.509,46.387,36.621,30.273,9.277,-0.977
1584546772.513,33.691,33.203,28.320,32.715,-1.953
1584546772.517,9.766,27.344,25.391,40.527,29.297
1584546772.520,19.043,25.879,31.738,24.414,27.344
1584546772.524,40.527,25.879,32.227,3.418,82.031
1584546772.528,38.086,23.926,29.297,20.508,57.617
1584546772.532,13.672,26.367,28.320,42.480,37.109
1584546772.536,10.742,28.320,27.344,23.438,69.336
1584546772.540,33.691,24.414,32.227,2.930,15.137
1584546772.544,41.016,23.438,35.645,13.184,79.102
1584546772.548,20.996,22.461,35.156,31.738,99.609
1584546772.552,15.625,24.902,35.645,29.785,41.016
1584546772.556,32.227,26.367,32.715,10.254,48.340
1584546772.560,38.574,24.414,30.273,12.207,25.391
1584546772.563,21.973,25.391,34.180,30.762,10.742
1584546772.567,13.672,27.344,31.738,40.039,-21.484
1584546772.571,25.391,25.391,28.320,20.996,-25.391
1584546772.575,32.715,26.855,28.320,-6.836,-27.344
1584546772.579,25.879,29.297,33.691,9.277,12.695
1584546772.583,12.207,29.785,38.086,30.273,52.734
1584546772.587,13.184,27.344,30.273,11.719,18.555
1584546772.591,28.809,23.438,24.902,-7.812,-16.113
1584546772.595,33.203,24.414,30.273,9.277,10.254
1584546772.599,17.578,23.926,30.273,36.621,44.922
1584546772.603,10.742,20.508,26.855,28.320,43.457
1584546772.606,26.367,19.043,26.855,4.395,21.484
1584546772.610,34.180,24.414,25.879,9.277,-1.953
1584546772.614,15.625,24.414,27.832,28.809,-23.926
1584546772.618,11.719,23.438,27.344,30.273,-25.391
1584546772.622,40.527,30.273,25.391,12.695,11.719
1584546772.626,52.246,33.691,23.926,6.348,-16.113
1584546772.630,22.461,29.785,27.832,28.320,4.395
1584546772.634,-0.977,25.391,29.297,39.551,18.066
1584546772.638,15.137,25.879,26.855,12.695,7.812
1584546772.642,36.621,28.320,28.320,0.977,45.410
1584546772.645,36.133,31.738,31.738,20.020,8.789
1584546772.649,16.113,29.785,30.762,31.250,-2.441
1584546772.653,16.602,29.785,28.809,19.531,44.434
1584546772.657,41.504,35.645,31.738,4.883,24.414
1584546772.661,43.457,36.133,33.203,19.531,30.762
1584546772.665,23.438,30.273,30.762,41.504,46.387
1584546772.669,17.090,26.367,26.367,31.250,28.320
1584546772.673,33.691,25.391,25.391,8.789,27.832
1584546772.677,41.016,27.832,28.320,15.625,-8.789
1584546772.681,21.484,32.227,28.809,35.156,9.277
1584546772.685,8.301,26.367,25.879,38.086,35.156
1584546772.688,26.855,25.391,26.367,23.438,-7.324
1584546772.692,39.551,30.762,31.250,20.508,-37.598
1584546772.696,24.902,28.320,35.156,37.109,-40.039
1584546772.700,9.766,25.879,34.180,38.574,18.066
1584546772.704,19.043,26.855,29.785,18.555,64.941
1584546772.708,35.156,26.855,28.320,8.301,66.895
1584546772.712,28.320,27.832,31.738,23.438,31.738
1584546772.716,15.625,28.809,37.109,44.922,18.555
1584546772.720,20.020,28.809,35.156,28.320,39.551
1584546772.724,35.156,26.367,31.738,9.766,30.762
1584546772.728,38.574,24.414,33.203,26.855,-6.348
1584546772.731,22.461,24.414,30.762,40.527,16.602
1584546772.735,16.602,23.926,27.832,26.367,39.062
1584546772.739,34.668,26.855,24.414,1.953,22.461
1584546772.743,44.922,25.879,25.879,2.441,3.906
1584546772.747,29.297,29.297,36.621,21.484,-11.230
1584546772.751,14.648,32.715,33.691,27.344,34.668
1584546772.755,26.855,25.879,24.414,11.230,-15.137
1584546772.759,41.992,25.879,27.832,1.953,-41.016
1584546772.763,30.273,30.273,32.227,21.973,18.066
1584546772.767,7.324,26.855,27.344,31.738,31.738
1584546772.770,9.277,22.949,21.973,11.719,54.199
1584546772.774,29.297,21.973,26.855,-4.395,46.387
1584546772.778,30.273,24.414,28.320,8.789,34.668
1584546772.782,16.113,29.297,27.344,37.109,34.668
1584546772.786,7.812,28.809,26.855,25.879,27.832
1584546772.790,20.996,25.879,21.973,-8.301,13.184
1584546772.794,29.297,27.832,24.414,0.000,-21.973
1584546772.798,14.160,30.762,30.762,32.715,5.371
1584546772.802,2.441,27.344,31.738,32.715,93.262
1584546772.806,20.996,26.367,28.809,9.277,102.539
1584546772.810,34.668,25.879,23.438,1.953,14.160
1584546772.813,18.555,22.461,25.391,19.531,15.625
1584546772.817,6.836,23.926,28.320,30.273,18.066
1584546772.821,21.973,27.832,31.738,12.207,-20.996
1584546772.825,40.527,30.273,30.273,1.465,-25.879
1584546772.829,36.133,29.297,24.414,20.996,-35.645
1584546772.833,29.297,26.367,24.414,43.945,7.324
1584546772.837,27.832,26.855,28.320,24.902,44.434
1584546772.841,22.949,26.367,30.273,-11.230,1.953
1584546772.845,19.043,22.949,31.250,0.488,3.906
1584546772.849,12.695,19.531,38.086,36.133,72.266
1584546772.853,10.742,18.066,38.086,31.738,49.805
1584546772.856,30.762,19.043,36.133,7.812,9.277
1584546772.860,38.574,19.531,36.621,6.836,26.855
1584546772.864,13.672,19.043,34.180,22.949,16.113
1584546772.868,3.418,20.508,39.062,24.414,9.766
1584546772.872,20.508,19.531,40.039,5.371,23.926
1584546772.876,32.227,18.066,34.668,0.000,11.719
1584546772.880,16.602,22.949,33.203,19.531,-1.953
1584546772.884,5.371,27.832,35.156,32.227,26.367
1584546772.888,13.184,23.926,32.227,12.207,30.273
1584546772.892,27.832,19.531,30.273,-1.953,15.625
1584546772.895,31.738,19.531,33.203,18.555,56.641
1584546772.899,13.184,24.902,28.809,41.016,63.965
1584546772.903,12.695,26.855,27.832,29.785,-2.441
1584546772.907,31.738,20.508,29.785,4.883,-11.719
1584546772.911,30.273,19.043,27.832,10.742,20.996
1584546772.915,5.859,24.414,28.809,31.738,40.527
1584546772.919,6.836,25.391,29.785,27.344,76.172
1584546772.923,31.250,24.414,27.344,1.465,45.898
1584546772.927,39.062,26.367,26.855,2.441,17.090
1584546772.931,20.020,27.344,26.855,22.461,-8.789
1584546772.935,9.766,30.273,25.879,21.973,20.508
1584546772.938,24.902,30.273,25.879,6.836,51.758
1584546772.942,41.504,22.461,28.809,6.348,38.574
1584546772.946,30.273,22.949,33.203,25.391,6.836
1584546772.950,13.184,25.391,32.227,32.715,-7.812
1584546772.954,21.484,27.344,32.715,15.625,28.320
1584546772.958,37.109,29.785,36.621,7.324,-0.977
1584546772.962,36.133,32.227,32.715,25.879,-72.754
1584546772.966,18.066,32.715,25.879,37.598,0.488
1584546772.970,16.602,31.738,23.926,13.672,47.852
1584546772.974,35.645,32.227,24.902,-7.812,21.484
1584546772.978,42.480,32.715,28.809,8.301,49.316
1584546772.981,19.043,28.809,32.227,31.250,19.531
1584546772.985,7.324,25.879,26.855,24.414,23.438
1584546772.989,25.879,27.832,24.902,5.371,46.875
1584546772.993,35.156,28.809,29.785,9.277,16.602
1584546772.997,19.531,26.855,33.203,32.227,33.203
1584546773.001,2.441,29.297,33.203,33.203,85.938
1584546773.005,18.066,32.715,28.809,13.672,51.270
1584546773.009,34.668,29.297,25.391,-0.488,8.301
1584546773.013,21.484,27.344,28.320,6.836,29.785
1584546773.017,9.766,27.344,31.250,24.414,54.688
1584546773.020,16.602,24.902,22.949,12.207,24.902
1584546773.024,33.203,24.414,19.531,-4.395,23.438
1584546773.028,30.273,23.926,24.414,10.742,80.566
1584546773.032,12.207,27.832,25.879,27.344,79.102
1584546773.036,15.625,34.668,29.297,21.484,12.207
1584546773.040,34.180,30.273,29.785,3.418,4.395
1584546773.044,41.504,25.391,26.855,9.766,41.992
1584546773.048,26.367,25.391,29.297,40.527,64.941
1584546773.052,9.766,24.902,31.738,32.715,88.867
1584546773.056,19.043,20.996,29.297,-2.441,20.508
1584546773.060,35.645,22.461,30.762,0.977,-48.340
1584546773.063,27.344,27.832,34.180,23.438,23.926
1584546773.067,15.137,30.762,30.762,29.785,14.648
1584546773.071,22.949,25.391,26.367,7.812,-64.453
1584546773.075,39.062,21.484,28.320,-7.812,-1.953
1584546773.079,37.109,29.297,34.668,19.531,86.426
1584546773.083,12.207,29.297,29.297,45.410,30.762
1584546773.087,7.324,23.438,25.391,26.855,1.953
1584546773.091,26.367,22.461,27.344,-0.977,16.602
1584546773.095,26.855,23.438,24.902,5.371,-30.762
1584546773.099,12.207,26.367,27.344,29.785,-4.883
1584546773.103,11.719,28.320,28.320,25.391,7.812
1584546773.106,26.367,31.250,25.879,3.418,8.789
1584546773.110,36.621,31.738,32.715,12.695,64.941
1584546773.114,19.043,27.344,35.156,32.715,84.473
1584546773.118,2.930,22.461,31.738,25.391,66.895
1584546773.122,14.160,22.461,31.738,2.441,64.941
1584546773.126,27.344,23.438,31.738,-0.488,68.848
1584546773.130,20.020,24.902,30.273,17.090,69.336
1584546773.134,8.789,27.344,29.785,29.297,18.066
1584546773.138,16.602,29.297,26.855,8.301,-20.508
1584546773.142,37.598,27.344,25.879,-3.906,6.836
1584546773.145,31.250,25.391,26.367,14.160,23.926
1584546773.149,10.742,25.879,31.250,31.250,-1.953
1584546773.153,16.602,27.344,35.156,19.531,-33.691
1584546773.157,34.180,27.344,34.180,-1.953,17.090
1584546773.161,30.762,23.926,31.738,6.348,51.758
1584546773.165,13.184,25.391,26.855,27.832,54.199
1584546773.169,9.277,27.832,28.809,28.320,88.867
1584546773.173,24.414,28.809,29.297,8.789,75.195
1584546773.177,33.691,28.809,32.227,10.254,28.809
1584546773.181,17.578,23.438,32.227,32.227,50.781
1584546773.185,7.812,22.949,29.785,34.180,41.504
1584546773.188,21.484,23.438,27.344,8.789,-8.789
1584546773.192,31.250,22.461,24.414,-0.977,9.766
1584546773.196,20.508,22.949,30.273,17.578,-4.883
1584546773.200,3.906,24.902,35.156,25.879,-24.902
1584546773.204,5.859,26.367,31.738,12.207,20.996
1584546773.208,23.926,24.414,25.879,-2.930,3.906
1584546773.212,25.391,27.344,28.809,8.789,10.254
1584546773.216,12.207,33.203,32.715,33.691,64.453
1584546773.220,14.160,31.250,29.297,21.973,59.082
1584546773.224,37.598,30.273,28.320,6.836,43.945
1584546773.228,46.875,30.273,25.879,21.973,33.691
1584546773.231,21.484,24.414,27.344,37.598,57.129
1584546773.235,10.254,23.438,31.250,26.367,35.645
1584546773.239,27.832,24.414,32.715,7.812,18.066
1584546773.243,39.551,22.949,35.156,13.672,22.461
1584546773.247,30.273,22.949,32.715,28.809,8.301
1584546773.251,18.066,26.855,26.855,30.273,41.504
1584546773.255,30.273,29.297,27.832,13.672,82.031
1584546773.259,45.410,29.785,28.809,7.324,48.828
1584546773.263,37.109,30.762,27.344,24.902,7.812
1584546773.267,11.230,30.273,25.879,38.574,10.254
1584546773.270,12.207,30.762,29.297,22.949,-20.996
1584546773.274,39.062,30.273,33.691,10.742,-7.324
1584546773.278,40.039,29.785,32.227,31.250,24.902
1584546773.282,18.555,27.344,31.738,48.340,9.766
1584546773.286,17.578,26.367,30.762,31.738,50.781
1584546773.290,38.086,29.297,29.785,3.418,43.457
1584546773.294,38.086,28.809,27.344,11.719,20.020
1584546773.298,17.090,26.855,22.461,30.273,23.926
1584546773.302,12.207,25.391,22.949,24.902,-48.828
1584546773.306,29.785,24.902,23.438,9.277,-27.832
1584546773.310,40.039,23.926,24.414,10.742,26.367
1584546773.313,23.926,25.391,28.320,33.203,8.301
1584546773.317,9.277,23.438,30.762,38.086,10.742
1584546773.321,18.066,22.949,27.832,17.578,62.500
1584546773.325,36.133,23.926,27.344,6.836,53.223
1584546773.329,35.645,23.438,26.367,19.531,31.738
1584546773.333,16.602,25.879,26.855,35.156,36.621
1584546773.337,16.113,25.879,27.832,29.297,22.949
1584546773.341,36.133,25.391,28.809,11.719,13.672
1584546773.345,31.738,22.949,27.832,6.348,2.441
1584546773.349,10.742,23.438,27.832,27.344,52.734
1584546773.353,9.277,26.367,27.344,32.227,27.344
1584546773.356,27.832,29.785,25.879,11.230,21.973
1584546773.360,35.156,29.785,22.461,9.766,77.637
1584546773.364,22.949,28.809,20.996,34.180,26.855
1584546773.368,9.277,27.344,24.414,35.645,25.879
1584546773.372,18.066,25.879,24.414,9.277,74.707
1584546773.376,35.645,28.809,28.809,2.441,15.137
1584546773.380,24.902,31.738,34.180,21.973,1.465
1584546773.384,8.301,29.297,33.691,32.715,26.367
1584546773.388,17.090,27.832,33.691,17.578,19.531
1584546773.392,33.203,26.367,35.645,0.977,45.898
1584546773.395,27.832,24.902,33.691,17.090,50.781
1584546773.399,11.230,26.367,31.250,36.133,60.547
1584546773.403,13.672,25.879,29.297,19.043,26.855
1584546773.407,33.691,26.855,26.855,-2.441,8.301
1584546773.411,35.156,28.320,30.273,9.766,25.879
1584546773.415,14.648,24.414,29.785,37.109,54.199
1584546773.419,9.766,24.414,26.367,28.809,16.113
1584546773.423,22.949,25.879,27.344,3.906,16.113
1584546773.427,36.621,26.855,27.832,6.836,33.691
1584546773.431,23.926,27.832,35.645,29.785,-4.395
1584546773.435,11.719,26.855,39.551,36.133,-0.488
1584546773.438,27.832,25.879,34.180,16.113,-5.859
1584546773.442,37.109,28.809,30.762,9.766,5.371
1584546773.446,20.996,24.902,27.344,20.996,21.484
1584546773.450,3.906,23.438,25.391,24.902,-30.273
1584546773.454,12.695,27.832,28.320,13.672,-42.480
1584546773.458,30.273,25.391,30.273,0.488,19.531
1584546773.462,25.391,26.855,28.809,14.160,62.988
1584546773.466,9.277,27.832,28.809,32.715,14.648
1584546773.470,10.742,24.414,30.273,21.484,9.277
1584546773.474,29.785,22.949,28.809,4.883,85.938
1584546773.478,34.180,25.391,27.344,19.531,51.758
1584546773.481,17.090,28.809,31.250,48.828,40.527
1584546773.485,13.672,26.855,33.691,36.133,43.457
1584546773.489,32.715,23.926,35.156,6.836,31.250
1584546773.493,43.457,22.461,38.086,9.277,8.301
1584546773.497,24.414,23.926,34.668,26.855,14.160
1584546773.501,13.672,27.832,29.297,34.180,64.941
1584546773.505,27.344,25.391,27.344,18.555,12.695
1584546773.509,41.504,24.902,27.832,2.930,-30.762
1584546773.513,29.297,26.367,26.855,17.090,-32.715
1584546773.517,11.230,27.832,30.762,38.086,24.414
1584546773.520,19.043,28.320,32.227,28.809,-17.090
1584546773.524,39.062,24.414,30.273,13.184,-62.988
1584546773.528,34.668,23.438,27.832,24.414,26.367
1584546773.532,11.719,24.902,28.809,38.086,-12.695
1584546773.536,12.207,25.391,30.273,23.438,3.906
1584546773.540,31.738,28.320,31.250,3.418,76.660
1584546773.544,35.156,28.320,29.785,12.695,45.898
1584546773.548,18.555,26.367,30.273,41.504,58.105
1584546773.552,17.090,25.879,33.203,39.551,87.891
1584546773.556,30.762,24.414,33.203,15.137,54.199
1584546773.560,35.645,22.949,33.203,6.836,31.738
1584546773.563,19.043,24.414,33.691,18.066,24.902
1584546773.567,12.207,25.879,34.180,33.203,52.734
1584546773.571,24.414,24.414,31.250,20.020,35.645
1584546773.575,38.086,20.508,26.367,9.277,39.551
1584546773.579,30.762,24.414,26.367,28.809,49.316
1584546773.583,11.230,27.832,26.855,38.086,1.953
1584546773.587,14.648,25.879,26.367,19.043,-2.930
1584546773.591,31.738,27.832,27.344,3.906,50.781
1584546773.595,26.367,31.250,27.832,10.742,100.098
1584546773.599,8.301,30.762,25.879,34.668,114.746
1584546773.603,10.742,28.320,27.832,31.250,50.781
1584546773.606,35.156,27.344,33.203,10.742,20.020
1584546773.610,43.945,27.832,32.715,11.719,14.160
1584546773.614,23.438,31.250,32.227,33.691,-1.465
1584546773.618,13.184,29.785,32.715,36.133,79.102
1584546773.622,25.879,24.414,32.715,13.184,58.105
1584546773.626,35.645,22.949,32.227,6.836,-38.086
1584546773.630,22.461,28.320,32.715,23.438,-23.438
1584546773.634,5.371,31.738,29.785,33.691,72.754
1584546773.638,15.625,27.344,26.367,22.949,94.238
1584546773.642,35.645,22.461,26.855,12.207,51.758
1584546773.645,29.785,21.484,27.832,20.508,40.039
1584546773.649,5.859,24.414,22.461,30.273,30.273
1584546773.653,8.789,25.391,14.160,13.672,36.133
1584546773.657,37.109,28.320,22.461,1.953,43.945
1584546773.661,39.551,30.762,31.250,17.090,35.156
1584546773.665,16.602,30.762,29.297,32.715,-3.418
1584546773.669,12.207,30.273,29.785,29.785,-15.625
1584546773.673,26.855,25.879,28.809,5.859,7.324
1584546773.677,32.227,24.902,24.414,-3.906,-16.602
1584546773.681,17.090,32.715,25.879,22.949,-15.137
1584546773.685,9.766,31.250,23.438,32.715,17.578
1584546773.688,23.438,20.508,22.949,10.742,13.672
1584546773.692,34.668,22.461,32.227,10.254,26.367
1584546773.696,29.785,29.297,38.086,34.668,38.086
1584546773.700,10.254,27.832,29.785,35.645,49.805
1584546773.704,12.695,22.461,23.438,15.625,53.223
1584546773.708,31.738,21.484,28.809,2.930,3.906
1584546773.712,30.762,25.391,33.203,17.090,-6.348
1584546773.716,10.742,28.320,32.227,34.180,68.848
1584546773.720,11.230,25.879,30.762,24.414,84.473
1584546773.724,34.180,24.414,35.156,10.742,43.457
1584546773.728,37.109,25.879,37.598,24.902,8.789
1584546773.731,17.090,22.461,31.738,46.387,32.715
1584546773.735,9.766,22.949,29.297,31.738,46.875
1584546773.739,22.949,24.902,29.297,8.789,23.926
1584546773.743,32.227,22.461,26.855,9.277,21.484
1584546773.747,15.137,25.391,26.367,25.879,-34.180
1584546773.751,6.836,28.320,27.344,39.062,-27.344
1584546773.755,26.855,25.879,30.273,26.855,-2.441
1584546773.759,44.434,25.879,29.297,21.973,2.930
1584546773.763,39.062,29.297,28.320,40.527,14.648
1584546773.767,19.043,25.391,32.715,43.945,-1.953
1584546773.770,20.508,24.902,33.691,26.855,42.969
1584546773.774,40.527,26.367,32.715,10.742,28.320
1584546773.778,41.016,26.367,30.273,17.578,1.953
1584546773.782,20.996,29.785,26.367,38.574,39.062
1584546773.786,18.555,29.785,27.832,41.016,47.363
1584546773.790,34.180,26.855,28.320,22.949,19.043
1584546773.794,34.668,23.926,25.391,19.043,29.785
1584546773.798,20.508,26.367,27.832,39.551,11.230
1584546773.802,12.207,29.297,25.879,42.480,29.297
1584546773.806,24.414,29.785,24.414,18.555,69.336
1584546773.810,38.574,27.832,25.879,9.766,32.715
1584546773.813,25.391,27.344,23.926,27.832,41.016
1584546773.817,7.324,28.320,17.578,38.086,26.367
1584546773.821,18.066,28.320,18.555,16.602,-3.418
1584546773.825,40.527,25.879,30.273,4.883,34.668
1584546773.829,27.832,23.438,34.180,21.484,37.598
1584546773.833,0.977,25.391,28.809,24.902,20.508
1584546773.837,6.348,26.367,27.344,10.742,29.785
1584546773.841,27.344,26.855,29.785,1.465,74.707
1584546773.845,26.855,27.344,29.785,7.324,49.805
1584546773.849,10.742,27.832,28.809,29.297,40.527
1584546773.853,14.160,28.320,26.855,27.344,42.480
1584546773.856,35.645,28.320,27.344,11.719,23.438
1584546773.860,39.062,27.832,28.809,15.625,13.672
1584546773.864,19.043,26.367,28.809,35.156,13.672
1584546773.868,12.207,26.855,32.715,36.133,50.781
1584546773.872,23.926,27.832,30.273,12.207,47.363
1584546773.876,34.668,30.273,21.484,9.277,-4.395
1584546773.880,28.809,30.273,22.949,32.227,-6.836
1584546773.884,12.207,30.762,29.297,39.062,34.180
1584546773.888,17.578,31.250,29.297,17.090,22.949
1584546773.892,36.133,27.832,30.762,8.789,7.812
1584546773.895,31.738,26.855,32.715,18.555,27.344
1584546773.899,12.695,31.738,34.668,32.715,58.594
1584546773.903,11.230,27.344,31.250,18.066,29.785
1584546773.907,28.320,25.391,26.855,-3.906,42.480
1584546773.911,31.250,25.391,23.926,10.742,28.809
1584546773.915,11.719,25.391,18.555,28.320,8.789
1584546773.919,4.883,29.297,25.879,21.484,22.949
1584546773.923,22.461,26.367,28.320,3.906,-14.648
1584546773.927,36.621,29.785,19.531,3.418,-47.852
1584546773.931,17.578,29.297,21.973,34.668,-21.973
1584546773.935,1.953,25.391,31.250,43.945,-25.879
1584546773.938,21.484,26.367,28.320,15.137,-31.250
1584546773.942,35.645,26.855,26.855,9.277,11.719
1584546773.946,23.438,27.832,30.273,26.367,27.832
1584546773.950,14.648,30.762,29.785,44.922,-3.418
1584546773.954,16.602,28.809,26.855,28.809,15.625
1584546773.958,26.367,23.926,24.414,0.488,64.453
1584546773.962,28.809,25.879,26.367,16.602,55.176
1584546773.966,10.742,29.297,28.809,46.387,28.320
1584546773.970,2.930,26.855,26.367,31.738,-20.996
1584546773.974,22.461,24.414,24.414,6.348,-13.672
1584546773.978,31.738,24.414,21.973,16.113,48.828
1584546773.981,13.672,26.855,24.414,39.062,62.012
1584546773.985,9.277,29.785,27.832,41.504,33.691
1584546773.989,24.414,27.344,28.320,20.996,17.090
1584546773.993,31.250,25.391,31.738,17.578,23.926
1584546773.997,19.043,26.367,33.691,41.504,3.906
1584546774.001,9.277,27.344,29.297,43.457,1.465
1584546774.005,21.484,27.344,28.809,21.484,-1.465
1584546774.009,35.156,25.879,31.250,19.043,21.484
1584546774.013,30.762,27.344,31.250,39.551,56.152
1584546774.017,15.625,30.273,29.297,54.688,20.996
1584546774.020,17.578,31.250,28.320,37.598,4.883
1584546774.024,34.668,30.273,25.879,16.113,23.926
1584546774.028,38.086,30.273,28.320,31.738,4.395
1584546774.032,20.020,30.273,30.762,48.828,25.879
1584546774.036,17.578,32.227,27.344,36.621,30.762
1584546774.040,40.527,35.645,29.785,18.066,27.832
1584546774.044,49.316,34.180,35.645,24.414,35.645
1584546774.048,27.832,27.832,28.809,41.992,21.484
1584546774.052,6.348,26.855,20.508,32.227,24.902
1584546774.056,15.137,25.391,23.926,10.742,41.992
1584546774.060,33.203,23.926,24.414,12.695,35.645
1584546774.063,24.902,29.785,22.949,32.715,70.312
1584546774.067,15.137,33.691,26.367,42.969,83.008
1584546774.071,26.367,29.297,30.762,28.809,39.551
1584546774.075,40.039,25.391,29.785,12.695,58.594
1584546774.079,28.320,23.926,25.879,21.484,64.941
1584546774.083,9.766,24.902,22.949,47.852,41.016
1584546774.087,19.043,27.832,24.902,36.133,43.945
1584546774.091,38.086,23.438,24.414,6.836,36.133
1584546774.095,37.109,22.949,26.855,14.648,35.156
1584546774.099,22.461,27.832,32.227,37.598,42.969
1584546774.103,19.043,24.414,26.855,33.203,-33.203
1584546774.106,26.367,18.555,29.297,14.648,13.184
1584546774.110,34.668,22.461,32.715,16.113,114.258
1584546774.114,27.344,26.367,29.297,37.109,49.316
1584546774.118,13.672,23.438,29.785,39.062,51.758
1584546774.122,21.973,21.973,33.691,20.508,77.637
1584546774.126,31.738,20.020,29.297,6.836,41.992
1584546774.130,20.020,22.461,23.438,25.879,52.734
1584546774.134,7.812,25.879,24.902,42.969,31.738
1584546774.138,17.578,25.879,22.949,17.578,8.789
1584546774.142,35.645,24.414,26.855,3.906,34.180
1584546774.145,32.715,24.414,34.668,20.996,37.598
1584546774.149,16.113,25.879,35.645,33.691,2.930
1584546774.153,13.672,24.902,31.738,16.113,20.508
1584546774.157,31.250,22.949,31.250,0.000,-15.625
1584546774.161,33.691,23.926,32.227,19.531,-51.270
1584546774.165,15.625,23.926,33.691,41.504,-34.668
1584546774.169,12.207,25.391,32.227,33.203,-24.414
1584546774.173,32.227,27.832,27.832,13.184,2.930
1584546774.177,42.480,24.414,27.344,10.742,-13.184
1584546774.181,25.391,28.320,22.949,32.715,5.859
1584546774.185,16.602,32.715,25.879,45.898,31.738
1584546774.188,26.855,26.855,29.297,24.414,2.930
1584546774.192,35.156,22.461,25.879,8.301,13.672
1584546774.196,27.344,19.531,29.297,15.625,-29.297
1584546774.200,14.160,22.949,34.668,32.715,-54.199
1584546774.204,15.137,28.320,36.621,27.344,49.805
1584546774.208,35.156,29.785,35.156,12.207,79.102
1584546774.212,31.250,26.855,28.809,19.531,-10.254
1584546774.216,8.789,28.320,28.809,25.879,-27.344
1584546774.220,8.301,27.344,31.738,9.277,26.367
1584546774.224,26.855,23.926,29.785,-21.484,38.086
1584546774.228,36.621,26.855,30.273,-25.879,30.273
1584546774.231,18.555,26.855,30.273,-7.324,29.297
1584546774.235,7.812,26.855,29.785,-12.695,39.062
1584546774.239,23.926,26.855,24.414,-42.480,54.199
1584546774.243,36.621,25.391,21.973,-48.828,47.363
1584546774.247,18.555,26.855,26.855,-30.762,41.016
1584546774.251,8.301,32.227,31.738,-29.297,34.180
1584546774.255,19.043,27.344,30.273,-50.293,53.711
1584546774.259,30.273,22.461,26.367,-63.965,89.844
1584546774.263,24.902,25.391,28.809,-51.270,83.496
1584546774.267,6.348,26.855,27.344,-41.016,41.992
1584546774.270,14.160,27.344,24.414,-54.688,40.527
1584546774.274,32.227,26.367,22.461,-73.242,27.832
1584546774.278,25.391,26.367,20.508,-66.406,-0.488
1584546774.282,7.812,24.902,27.832,-40.039,37.598
1584546774.286,5.859,22.949,29.785,-41.016,40.527
1584546774.290,20.020,25.391,28.320,-76.172,13.184
1584546774.294,24.414,26.855,30.762,-72.754,20.996
1584546774.298,13.184,24.414,29.785,-39.062,1.465
1584546774.302,4.395,24.902,28.809,-39.551,20.996
1584546774.306,11.230,25.879,28.320,-61.523,30.273
1584546774.310,19.043,22.949,25.879,-71.777,42.480
1584546774.313,1.953,22.949,24.902,-45.898,110.840
1584546774.317,-8.301,23.926,26.367,-30.762,47.852
1584546774.321,2.930,22.461,26.855,-54.688,-15.137
1584546774.325,18.555,20.996,27.344,-61.523,0.000
1584546774.329,16.113,21.484,26.367,-41.016,88.867
1584546774.333,3.418,25.391,26.367,-30.762,106.445
1584546774.337,10.742,28.809,35.156,-37.109,13.672
1584546774.341,27.344,27.832,38.574,-46.875,2.930
1584546774.345,29.297,23.926,36.621,-40.039,24.414
1584546774.349,12.695,23.926,30.273,-15.137,-5.371
1584546774.353,6.836,26.855,27.344,-21.484,-23.438
1584546774.356,26.367,25.879,29.297,-42.480,-27.344
1584546774.360,35.156,21.484,29.297,-31.250,-23.438
1584546774.364,17.090,21.973,28.320,-15.137,-1.465
1584546774.368,13.184,26.367,31.738,-14.648,-9.277
1584546774.372,27.832,27.344,35.156,-27.344,-6.836
1584546774.376,39.062,25.879,34.180,-33.691,22.949
1584546774.380,30.762,25.391,30.273,-16.602,44.434
1584546774.384,17.090,27.832,28.809,2.930,44.434
1584546774.388,26.367,31.250,32.715,-1.953,52.734
1584546774.392,40.039,26.367,33.203,-11.230,73.242
1584546774.395,27.344,19.531,29.297,-5.371,70.801
1584546774.399,8.301,20.996,28.320,10.254,26.855
1584546774.403,11.230,23.926,25.391,9.766,10.254
1584546774.407,33.203,27.344,25.879,1.465,28.320
1584546774.411,39.062,28.320,27.832,14.648,63.965
1584546774.415,17.090,28.809,27.344,32.227,82.031
1584546774.419,10.254,28.809,30.273,31.250,30.273
1584546774.423,30.762,25.879,32.715,13.672,20.508
1584546774.427,42.480,25.391,30.273,16.113,80.566
1584546774.431,22.461,27.344,26.855,38.086,71.777
1584546774.435,2.930,25.879,24.414,47.363,35.156
1584546774.438,23.438,24.414,22.949,25.879,44.434
1584546774.442,42.480,25.879,26.367,19.531,24.414
1584546774.446,26.855,27.832,27.832,41.504,34.668
1584546774.450,12.207,27.344,29.297,51.758,14.648
1584546774.454,25.391,28.809,36.621,37.109,-17.578
1584546774.458,39.551,33.203,27.832,18.066,16.602
1584546774.462,35.645,31.250,18.066,32.715,-16.602
1584546774.466,22.949,26.367,27.832,57.129,-10.254
1584546774.470,21.973,24.902,31.250,43.457,5.859
1584546774.474,36.621,25.879,26.855,26.367,-13.672
1584546774.478,40.039,28.809,25.879,35.645,30.273
1584546774.481,23.926,29.785,30.273,52.246,83.984
1584546774.485,11.230,25.391,33.691,51.758,75.684
1584546774.489,27.832,29.297,34.180,31.738,-22.949
1584546774.493,45.410,37.109,28.809,28.320,2.441
1584546774.497,29.297,30.762,24.414,48.828,27.832
1584546774.501,13.184,24.902,28.320,53.711,2.441
1584546774.505,25.391,25.879,28.809,31.738,13.184
1584546774.509,34.668,25.879,31.738,23.926,12.695
1584546774.513,27.344,25.391,35.645,40.527,-9.766
1584546774.517,14.648,25.879,34.180,55.664,-65.918
1584546774.520,12.695,24.414,28.809,42.480,-61.035
1584546774.524,36.133,24.414,28.809,26.367,-22.949
1584546774.528,42.969,30.762,32.715,35.645,7.812
1584546774.532,23.926,34.180,37.598,54.688,17.090
1584546774.536,16.113,30.273,34.668,50.781,20.996
1584546774.540,28.809,23.438,25.879,21.484,12.695
1584546774.544,32.715,20.020,21.973,18.555,22.461
1584546774.548,13.672,24.414,22.461,41.992,1.465
1584546774.552,4.395,28.809,27.832,46.387,26.367
1584546774.556,21.973,26.855,28.809,27.344,39.551
1584546774.560,39.551,25.879,27.344,28.320,1.465
1584546774.563,27.344,30.273,27.344,49.316,29.297
1584546774.567,13.672,30.273,29.297,57.617,23.926
1584546774.571,20.020,25.879,27.832,31.738,47.363
1584546774.575,34.180,24.902,20.020,11.230,93.750
1584546774.579,36.621,31.250,26.855,32.715,64.453
1584546774.583,18.066,31.738,31.738,56.152,38.086
1584546774.587,13.184,27.344,26.367,31.738,31.738
1584546774.591,33.203,28.320,30.273,11.719,50.293
1584546774.595,35.156,27.832,32.715,30.762,63.965
1584546774.599,20.508,29.785,34.668,50.781,26.855
1584546774.603,17.090,32.227,39.551,48.828,30.273
1584546774.606,26.367,29.297,31.250,27.344,-4.395
1584546774.610,30.273,25.879,23.926,24.414,-25.879
1584546774.614,19.043,26.367,31.738,47.852,11.719
1584546774.618,14.160,30.273,36.133,52.246,18.066
1584546774.622,26.855,34.180,31.250,25.391,30.762
1584546774.626,32.227,28.320,23.438,21.484,33.203
1584546774.630,23.926,24.902,26.855,44.434,42.480
1584546774.634,13.672,29.785,33.691,55.664,30.762
1584546774.638,19.531,30.762,30.762,39.551,4.883
1584546774.642,38.086,31.250,25.391,23.438,53.223
1584546774.645,29.785,31.738,23.926,32.227,52.246
1584546774.649,6.348,29.785,24.902,50.293,30.273
1584546774.653,8.301,28.320,23.926,36.621,14.160
1584546774.657,29.785,27.344,28.320,19.531,-12.695
1584546774.661,33.691,25.879,31.250,28.809,17.090
1584546774.665,19.043,30.273,30.273,48.340,28.320
1584546774.669,17.578,34.180,27.344,54.199,10.742
1584546774.673,35.156,31.250,24.414,40.527,10.254
1584546774.677,44.922,30.762,22.949,36.133,5.371
1584546774.681,31.250,32.227,26.855,52.246,8.301
1584546774.685,21.973,34.668,27.344,55.176,46.875
1584546774.688,30.273,34.668,22.949,39.062,47.852
1584546774.692,41.016,31.250,26.367,27.832,5.859
1584546774.696,36.621,31.738,27.344,41.016,-10.254
1584546774.700,17.578,31.738,28.320,59.082,43.945
1584546774.704,20.508,30.762,31.250,41.992,30.273
1584546774.708,39.551,32.227,31.250,12.695,-12.207
1584546774.712,34.668,31.738,29.297,21.973,1.465
1584546774.716,16.602,29.297,27.344,48.340,39.062
1584546774.720,16.113,23.926,24.902,43.945,46.875
1584546774.724,32.227,23.926,24.902,26.367,16.602
1584546774.728,39.062,27.832,22.949,30.762,2.930
1584546774.731,24.414,27.344,23.926,49.316,-4.395
1584546774.735,14.648,27.344,27.344,47.852,19.043
1584546774.739,31.250,28.320,29.297,27.832,27.832
1584546774.743,43.945,29.785,33.203,23.926,1.953
1584546774.747,26.855,29.297,32.227,43.945,19.531
1584546774.751,13.672,26.367,32.227,54.688,36.133
1584546774.755,27.832,26.367,30.273,31.250,10.742
1584546774.759,42.969,25.879,26.367,19.531,8.789
1584546774.763,35.156,27.344,29.297,44.922,-8.789
1584546774.767,18.066,30.762,31.250,58.105,5.859
1584546774.770,16.113,29.297,28.320,37.598,27.832
1584546774.774,29.785,22.949,27.832,15.625,42.480
1584546774.778,23.438,23.438,30.273,32.227,56.641
1584546774.782,9.277,26.855,33.203,54.199,64.941
1584546774.786,15.137,25.879,34.180,44.922,82.031
1584546774.790,30.762,26.855,29.297,28.320,53.711
1584546774.794,34.668,25.391,25.391,21.973,12.207
1584546774.798,21.973,23.926,29.785,41.992,35.156
1584546774.802,15.137,25.879,34.180,47.363,61.035
1584546774.806,29.785,26.855,26.367,17.578,42.969
1584546774.810,41.992,25.391,20.508,8.301,1.953
1584546774.813,22.461,24.414,26.367,32.227,22.949
1584546774.817,4.883,23.926,27.832,41.992,35.645
1584546774.821,16.602,25.879,23.926,26.855,35.645
1584546774.825,37.109,26.367,23.926,15.137,46.387
1584546774.829,34.180,26.367,29.785,25.391,61.523
1584546774.833,17.090,28.320,29.785,46.875,57.617
1584546774.837,13.184,25.879,26.855,34.180,38.086
1584546774.841,24.414,20.996,28.809,4.395,3.906
1584546774.845,24.414,20.508,25.391,9.277,-20.020
1584546774.849,5.859,24.902,21.973,34.668,-31.250
1584546774.853,1.953,24.902,24.414,32.715,-9.277
1584546774.856,19.043,21.484,26.367,15.625,14.648
1584546774.860,27.832,24.902,29.297,19.043,57.617
1584546774.864,14.648,25.879,28.320,44.434,93.262
1584546774.868,2.930,20.996,29.297,48.340,2.441
1584546774.872,16.602,22.461,34.180,20.508,-14.160
1584546774.876,33.691,24.414,35.645,11.230,-11.719
1584546774.880,23.438,23.438,33.203,34.668,27.832
1584546774.884,5.859,23.438,33.691,48.828,45.410
1584546774.888,11.719,24.414,27.344,31.250,19.531
1584546774.892,29.297,24.414,20.996,15.137,25.391
1584546774.895,27.344,24.902,27.832,31.250,8.301
1584546774.899,9.277,27.832,31.250,50.781,57.617
1584546774.903,8.301,26.855,30.273,40.039,52.246
1584546774.907,29.785,22.461,30.762,17.090,16.113
1584546774.911,31.738,22.461,29.297,19.043,5.371
1584546774.915,8.789,22.949,29.297,37.598,-20.996
1584546774.919,7.324,22.461,34.668,44.434,17.090
1584546774.923,28.809,25.391,32.227,29.297,61.035
1584546774.927,39.551,26.367,28.320,27.832,59.082
1584546774.931,25.391,25.391,32.715,46.875,10.254
1584546774.935,6.836,23.926,26.855,50.293,0.488
1584546774.938,14.160,22.949,16.602,28.320,17.090
1584546774.942,36.621,22.949,20.996,14.648,-18.066
1584546774.946,31.738,21.484,28.320,28.809,13.672
1584546774.950,11.719,20.996,28.320,41.504,70.801
1584546774.954,14.160,22.949,26.855,26.855,1.953
1584546774.958,37.109,25.391,29.785,14.648,-22.949
1584546774.962,37.109,29.297,30.762,26.367,6.348
1584546774.966,12.695,24.414,29.785,41.016,18.555
1584546774.970,6.836,22.949,24.414,32.715,18.066
1584546774.974,27.344,25.879,22.949,13.672,16.113
1584546774.978,34.668,23.438,27.344,17.090,17.090
1584546774.981,17.578,21.973,25.879,38.574,41.504
1584546774.985,14.160,24.902,23.926,37.109,60.059
1584546774.989,30.762,29.297,23.438,10.742,42.480
1584546774.993,40.039,28.320,26.367,16.113,85.449
1584546774.997,24.414,29.785,31.738,35.645,88.379
1584546775.001,9.766,31.738,29.785,34.668,19.531
1584546775.005,22.461,25.879,25.391,20.508,18.555
1584546775.009,40.527,25.391,28.320,9.766,26.367
1584546775.013,33.691,29.785,29.785,23.926,16.602
1584546775.017,19.043,29.297,27.832,44.434,62.500
1584546775.020,19.043,26.855,27.344,36.621,26.855
1584546775.024,33.203,26.855,26.367,22.461,20.508
1584546775.028,33.203,25.391,23.438,36.621,35.645
1584546775.032,16.113,20.996,26.367,58.594,-18.555
1584546775.036,14.160,22.461,26.855,47.363,7.812
1584546775.040,34.668,26.367,25.391,19.043,60.059
1584546775.044,44.434,26.855,32.227,23.438,63.965
1584546775.048,26.855,25.391,34.180,50.781,-24.414
1584546775.052,17.090,28.320,29.297,52.246,-29.785
1584546775.056,33.203,31.250,27.832,33.203,48.340
1584546775.060,42.969,28.320,27.344,27.344,44.922
1584546775.063,28.320,26.855,27.344,40.527,22.949
1584546775.067,13.672,28.320,28.320,51.758,20.020
1584546775.071,14.160,25.879,29.297,30.273,-30.273
1584546775.075,27.344,24.902,32.715,14.160,41.992
1584546775.079,29.297,26.855,32.227,31.250,64.453
1584546775.083,10.254,25.391,25.391,35.156,13.672
1584546775.087,6.836,23.926,21.484,13.184,12.207
1584546775.091,26.855,23.438,23.926,1.465,-31.250
1584546775.095,35.156,27.832,27.832,16.113,-6.836
1584546775.099,19.531,28.809,30.273,43.457,10.254
1584546775.103,10.254,25.879,30.273,40.039,13.184
1584546775.106,30.273,25.879,26.855,13.184,0.000
1584546775.110,38.086,25.391,25.879,20.508,20.508
1584546775.114,20.996,27.832,31.250,47.363,49.316
1584546775.118,12.207,30.273,32.715,50.293,-16.113
1584546775.122,24.414,28.809,29.785,29.297,-19.531
1584546775.126,33.691,26.367,25.879,15.137,38.574
1584546775.130,19.531,26.855,22.949,32.715,45.410
1584546775.134,4.883,28.809,21.484,46.387,12.695
1584546775.138,16.602,26.855,21.484,36.133,29.785
1584546775.142,38.086,26.367,30.762,30.273,16.602
1584546775.145,35.156,28.809,33.691,39.062,-12.207
1584546775.149,13.184,28.809,29.297,56.641,-2.930
1584546775.153,8.301,26.855,26.367,48.340,53.711
1584546775.157,32.227,25.391,28.320,26.367,63.477
1584546775.161,39.551,28.320,32.715,31.738,27.832
1584546775.165,21.973,31.738,32.227,50.781,30.762
1584546775.169,14.648,30.762,26.855,42.480,29.785
1584546775.173,30.273,26.855,26.367,16.113,14.160
1584546775.177,42.969,23.926,24.414,17.578,1.953
1584546775.181,25.879,27.832,25.391,41.504,25.879
1584546775.185,13.184,29.297,31.738,50.781,8.789
1584546775.188,28.809,26.367,29.785,32.715,-5.371
1584546775.192,41.504,25.879,30.273,20.508,-5.859
1584546775.196,32.227,30.273,32.715,38.086,25.879
1584546775.200,17.090,33.691,32.227,53.711,103.027
1584546775.204,18.066,29.785,30.273,30.762,92.773
1584546775.208,32.715,25.879,30.273,12.207,51.758
1584546775.212,35.156,27.832,30.762,30.762,22.949
1584546775.216,18.066,28.809,32.715,43.945,25.391
1584546775.220,8.301,24.414,32.715,24.414,39.062
1584546775.224,22.461,24.414,28.809,5.371,31.250
1584546775.228,38.086,29.297,28.809,21.484,53.711
1584546775.231,28.320,33.691,32.227,44.434,45.410
1584546775.235,18.555,35.645,27.832,43.457,25.391
1584546775.239,34.180,33.203,27.832,24.902,-6.836
1584546775.243,43.457,31.738,31.738,22.461,14.648
1584546775.247,26.367,32.227,31.738,40.039,31.250
1584546775.251,12.695,31.250,30.273,52.246,7.324
1584546775.255,17.578,29.297,22.949,32.715,47.852
1584546775.259,30.762,28.320,21.484,13.672,64.941
1584546775.263,25.879,25.879,27.344,33.691,30.762
1584546775.267,10.254,27.344,31.738,51.270,52.734
1584546775.270,15.625,29.785,30.762,32.715,123.535
1584546775.274,35.645,28.320,26.367,18.066,40.527
1584546775.278,41.992,31.250,28.320,22.949,-35.645
1584546775.282,21.973,35.645,29.297,34.180,-18.066
1584546775.286,12.207,29.785,22.461,32.227,27.832
1584546775.290,24.414,21.484,22.461,7.812,17.090
1584546775.294,31.250,26.367,26.367,12.207,-24.902
1584546775.298,18.066,31.250,24.902,36.621,5.859
1584546775.302,8.789,27.832,23.926,40.527,37.598
1584546775.306,21.973,24.414,26.855,20.020,21.973
1584546775.310,35.156,27.344,30.273,14.160,53.223
1584546775.313,24.902,31.250,29.785,34.180,53.711
1584546775.317,8.301,31.250,26.367,35.156,31.250
1584546775.321,18.066,30.273,25.879,13.184,9.766
1584546775.325,35.156,29.297,24.902,-5.371,-9.766
1584546775.329,28.320,30.762,27.344,12.207,27.832
1584546775.333,15.137,31.250,28.320,40.527,28.809
1584546775.337,22.949,29.785,25.879,26.367,4.883
1584546775.341,35.645,29.297,22.949,-2.441,4.395
1584546775.345,33.691,30.273,26.855,4.395,14.648
1584546775.349,17.578,30.762,28.809,28.809,35.645
1584546775.353,7.812,26.855,30.273,24.902,55.176
1584546775.356,20.020,22.461,30.762,-1.465,58.105
1584546775.360,27.832,24.902,22.461,-9.277,40.039
1584546775.364,16.113,30.273,24.902,14.648,41.992
1584546775.368,6.348,25.391,28.809,23.438,10.742
1584546775.372,13.672,24.414,26.367,5.371,-6.836
1584546775.376,28.320,27.832,28.320,3.906,20.996
1584546775.380,26.367,27.344,30.273,28.809,13.184
1584546775.384,17.090,32.227,34.668,50.781,-4.883
1584546775.388,18.066,30.762,33.691,27.344,-1.465
1584546775.392,32.715,23.926,26.855,7.324,-23.438
1584546775.395,31.738,21.973,27.832,31.250,-5.859
1584546775.399,15.625,24.902,31.250,52.246,21.484
1584546775.403,16.113,29.297,25.391,35.645,-4.883
1584546775.407,34.180,29.785,20.996,12.695,38.086
1584546775.411,39.062,26.367,21.973,18.066,29.297
1584546775.415,17.578,24.414,22.949,37.598,-26.855
1584546775.419,11.719,28.809,30.273,38.086,5.859
1584546775.423,26.367,28.320,29.785,19.531,4.395
1584546775.427,35.156,22.949,26.855,17.578,-11.719
1584546775.431,20.996,24.414,26.855,34.668,17.090
1584546775.435,6.348,26.367,29.297,42.480,41.504
1584546775.438,18.066,25.879,28.320,28.320,89.844
1584546775.442,37.109,23.926,22.949,14.648,104.980
1584546775.446,27.832,23.926,30.762,25.879,45.898
1584546775.450,10.742,25.879,34.668,39.551,51.270
1584546775.454,18.555,24.902,29.785,26.367,46.875
1584546775.458,37.109,22.949,26.367,11.230,41.992
1584546775.462,37.598,25.391,29.297,21.973,90.332
1584546775.466,17.578,32.715,33.203,41.504,71.777
1584546775.470,6.348,28.320,30.762,26.367,20.996
1584546775.474,20.508,21.484,29.297,0.000,9.277
1584546775.478,30.762,22.949,30.762,8.301,2.930
1584546775.481,16.602,27.832,31.250,30.273,-16.113
1584546775.485,5.371,28.320,26.855,23.926,24.902
1584546775.489,21.484,24.414,27.832,12.207,76.660
1584546775.493,39.551,27.344,30.273,18.555,57.617
1584546775.497,27.344,36.133,27.832,36.621,63.965
1584546775.501,9.277,35.645,24.414,45.410,46.875
1584546775.505,19.531,26.855,26.367,23.926,22.461
1584546775.509,36.133,24.414,27.344,13.184,-0.977
1584546775.513,26.367,25.879,27.344,37.598,-2.441
1584546775.517,3.906,24.414,27.832,55.176,0.977
1584546775.520,6.836,21.973,26.367,40.039,-6.348
1584546775.524,28.809,22.949,23.438,24.414,-16.113
1584546775.528,30.273,23.926,24.902,34.668,-4.395
1584546775.532,11.230,23.926,27.344,50.781,50.781
1584546775.536,9.766,23.926,27.832,43.457,50.293
1584546775.540,32.227,27.344,26.855,23.926,4.395
1584546775.544,39.062,28.809,27.344,25.391,38.086
1584546775.548,16.113,23.438,29.297,37.109,8.301
1584546775.552,4.883,22.949,26.367,44.922,-17.090
1584546775.556,25.391,27.832,29.297,35.156,-27.344
1584546775.560,42.969,30.762,33.691,22.461,-60.059
1584546775.563,30.273,30.762,29.297,32.227,-19.531
1584546775.567,12.207,27.344,25.391,41.504,31.738
1584546775.571,24.902,28.320,24.414,33.691,39.062
1584546775.575,42.480,26.855,21.973,16.113,-9.766
1584546775.579,35.156,24.414,26.367,25.879,-3.418
1584546775.583,20.508,29.785,30.762,46.875,15.625
1584546775.587,17.578,29.785,30.273,35.156,10.254
1584546775.591,33.691,26.367,30.762,14.648,13.184
1584546775.595,37.109,27.832,30.762,30.273,37.598
1584546775.599,17.090,28.320,25.879,46.387,91.309
1584546775.603,10.742,27.344,26.855,33.203,76.172
1584546775.606,29.785,24.902,30.762,7.812,18.555
1584546775.610,42.969,24.414,28.320,4.883,38.574
1584546775.614,22.461,25.391,29.297,35.645,78.613
1584546775.618,6.836,27.344,28.809,42.480,36.133
1584546775.622,20.996,28.320,28.320,12.695,5.371
1584546775.626,36.621,26.367,26.855,5.859,13.184
1584546775.630,27.832,25.879,26.855,29.785,37.598
1584546775.634,7.324,22.949,31.738,39.551,77.637
1584546775.638,9.766,22.461,31.250,18.066,41.504
1584546775.642,27.344,26.367,26.855,0.977,-11.230
1584546775.645,25.391,27.832,27.344,7.812,39.062
1584546775.649,10.742,30.273,29.297,30.273,20.508
1584546775.653,20.020,34.180,28.809,32.715,-21.484
1584546775.657,38.574,33.203,29.297,11.230,-0.488
1584546775.661,28.809,25.879,28.809,6.348,14.648
1584546775.665,7.324,25.879,27.344,23.926,-20.996
1584546775.669,3.418,29.297,29.785,30.273,31.738
1584546775.673,13.184,24.414,25.879,1.953,77.148
1584546775.677,25.879,24.902,24.902,-7.324,15.625
1584546775.681,13.184,29.785,31.738,20.508,44.922
1584546775.685,-3.418,27.344,30.762,31.250,60.547
1584546775.688,6.348,21.973,26.855,3.418,27.344
1584546775.692,23.438,23.926,25.391,-11.230,42.480
1584546775.696,20.996,26.855,23.926,16.113,63.477
1584546775.700,7.324,27.344,22.949,34.180,62.500
1584546775.704,11.230,25.391,26.367,14.160,83.496
1584546775.708,28.320,22.949,30.273,-2.441,77.148
1584546775.712,32.227,23.438,32.227,12.695,0.000
1584546775.716,15.137,23.926,33.203,35.156,-20.508
1584546775.720,5.371,24.414,31.250,31.738,62.500
1584546775.724,21.484,22.949,30.273,10.742,42.969
1584546775.728,33.691,20.508,29.297,15.137,-51.270
1584546775.731,17.090,21.973,28.320,40.527,-9.277
1584546775.735,11.230,24.902,30.762,42.480,20.020
1584546775.739,28.809,29.785,25.879,19.531,2.930
1584546775.743,38.574,31.250,22.461,9.766,85.938
1584546775.747,26.367,29.297,33.203,28.809,91.309
1584546775.751,13.184,31.250,38.574,45.410,23.926
1584546775.755,25.391,29.297,34.180,30.273,28.320
1584546775.759,40.039,25.879,27.832,14.648,37.109
1584546775.763,28.320,27.344,28.809,26.855,67.383
1584546775.767,13.672,31.738,32.227,48.828,70.801
1584546775.770,22.461,34.668,31.250,38.574,24.902
1584546775.774,39.551,32.227,28.809,14.648,11.230
1584546775.778,41.504,31.250,25.879,24.902,24.414
1584546775.782,24.902,30.762,26.855,47.363,34.180
1584546775.786,19.531,28.320,24.902,39.551,-9.277
1584546775.790,35.156,27.344,27.344,11.719,8.301
1584546775.794,45.898,32.715,34.668,14.648,34.668
1584546775.798,28.320,32.715,30.762,39.551,-13.672
1584546775.802,9.277,28.320,28.320,33.203,28.809
1584546775.806,17.578,23.438,26.367,8.789,32.715
1584546775.810,33.203,23.926,24.414,10.254,32.715
1584546775.813,29.297,30.273,27.344,31.250,61.523
1584546775.817,12.207,33.691,27.344,43.945,39.062
1584546775.821,17.090,31.250,24.414,20.996,34.668
1584546775.825,39.062,27.832,27.344,4.395,-7.812
1584546775.829,39.062,27.832,33.691,29.297,-25.391
1584546775.833,22.949,25.391,33.203,42.480,11.719
1584546775.837,14.648,23.926,29.297,25.879,37.598
1584546775.841,26.855,23.926,25.879,13.672,74.219
1584546775.845,39.551,23.926,26.367,23.926,72.266
1584546775.849,25.391,26.367,27.832,43.945,41.992
1584546775.853,14.648,27.344,27.344,40.527,-0.977
1584546775.856,34.180,26.367,29.785,20.996,-27.344
1584546775.860,46.387,27.344,36.621,15.625,11.719
1584546775.864,24.414,27.344,38.574,31.250,67.871
1584546775.868,11.719,29.297,38.086,41.016,46.387
1584546775.872,25.391,28.320,37.598,27.832,25.879
1584546775.876,36.133,23.438,34.180,12.695,24.414
1584546775.880,23.438,23.926,29.785,18.066,42.969
1584546775.884,8.301,28.320,30.273,30.273,35.156
1584546775.888,17.090,29.297,30.273,18.066,34.668
1584546775.892,35.645,26.367,26.855,9.277,30.273
1584546775.895,32.715,27.344,30.273,26.367,-12.695
1584546775.899,11.719,23.926,36.621,38.574,-18.066
1584546775.903,12.207,23.438,36.621,26.855,19.043
1584546775.907,31.250,25.879,31.738,12.695,51.758
1584546775.911,33.203,24.902,30.762,21.973,32.227
1584546775.915,15.625,24.414,33.203,39.062,41.992
1584546775.919,17.090,23.926,37.109,44.434,16.602
1584546775.923,37.109,22.461,36.133,26.367,-15.625
1584546775.927,39.551,25.391,28.809,7.324,-2.441
1584546775.931,15.137,28.809,24.414,18.555,0.488
1584546775.935,0.977,26.367,22.461,30.273,35.156
1584546775.938,11.719,22.949,22.461,14.648,78.125
1584546775.942,27.344,24.414,22.461,1.953,37.109
1584546775.946,21.973,27.832,22.461,22.461,-20.020
1584546775.950,3.418,31.250,25.391,37.598,-9.766
1584546775.954,10.742,29.297,27.832,24.902,38.574
1584546775.958,35.156,28.809,27.344,15.137,18.066
1584546775.962,35.156,29.785,28.809,28.809,19.531
1584546775.966,19.043,32.227,33.691,52.734,32.715
1584546775.970,18.555,35.645,32.227,45.898,37.109
1584546775.974,30.762,30.762,26.367,17.578,24.414
1584546775.978,32.715,26.367,26.367,19.043,-2.930
1584546775.981,20.020,27.344,31.250,46.387,24.414
1584546775.985,14.648,28.320,32.715,44.434,0.977
1584546775.989,29.297,27.344,27.344,19.043,-7.324
1584546775.993,43.457,26.367,21.973,18.066,79.590
1584546775.997,33.203,31.738,21.484,38.574,75.684
1584546776.001,20.996,37.109,27.832,50.781,53.223
1584546776.005,31.738,34.668,35.156,32.715,37.109
1584546776.009,44.922,33.691,35.645,15.137,25.879
1584546776.013,39.062,34.180,27.344,32.715,24.902
1584546776.017,24.414,33.691,24.902,45.410,22.461
1584546776.020,23.438,33.691,24.902,23.926,32.227
1584546776.024,41.016,29.297,23.926,8.789,8.789
1584546776.028,38.574,25.879,24.414,18.066,-20.996
1584546776.032,17.090,29.297,24.414,39.062,3.906
1584546776.036,12.695,29.297,27.344,39.062,-0.488
1584546776.040,28.320,25.391,26.855,8.789,-4.395
1584546776.044,41.504,25.879,30.762,10.742,40.039
1584546776.048,33.203,32.227,38.574,38.086,38.574
1584546776.052,18.066,28.809,31.738,34.180,29.297
1584546776.056,31.738,25.879,23.926,15.137,69.336
1584546776.060,49.316,27.832,27.344,12.695,39.062
1584546776.063,34.180,27.832,26.855,25.879,0.000
1584546776.067,15.625,27.832,26.367,35.645,21.973
1584546776.071,21.973,24.902,20.508,20.996,-10.254
1584546776.075,41.504,25.879,23.926,6.836,-11.719
1584546776.079,37.109,32.715,31.250,25.391,47.852
1584546776.083,11.230,28.320,27.344,40.039,72.754
1584546776.087,6.836,18.066,25.879,22.949,48.828
1584546776.091,25.391,18.066,27.832,-0.977,47.852
1584546776.095,34.668,22.949,29.785,7.324,81.055
1584546776.099,19.531,23.926,28.320,31.738,50.293
1584546776.103,6.836,23.926,22.461,26.855,43.457
1584546776.106,23.438,22.461,21.484,7.812,33.691
1584546776.110,28.809,18.555,28.809,4.395,-20.508
1584546776.114,15.137,22.949,32.227,25.391,73.730
1584546776.118,16.602,28.809,34.180,36.621,68.848
1584546776.122,23.926,22.949,31.250,14.648,22.461
1584546776.126,39.062,18.555,24.902,6.836,74.707
1584546776.130,31.250,20.020,24.414,30.273,76.172
1584546776.134,10.742,20.508,26.855,41.992,77.148
1584546776.138,17.090,21.973,26.855,24.414,53.711
1584546776.142,35.645,26.367,28.320,8.301,35.645
1584546776.145,35.156,25.391,28.809,20.020,50.293
1584546776.149,24.414,30.273,31.250,43.457,38.574
1584546776.153,25.879,41.016,37.598,38.574,-0.488
1584546776.157,26.855,34.180,31.250,7.812,15.137
1584546776.161,22.461,20.996,20.996,-0.977,66.895
1584546776.165,12.695,21.484,21.973,17.578,41.504
1584546776.169,7.812,28.809,24.902,22.949,29.785
1584546776.173,26.367,30.273,27.344,4.883,54.688
1584546776.177,36.621,30.273,28.809,3.906,37.598
1584546776.181,22.461,31.250,26.855,20.508,16.113
1584546776.185,13.672,27.832,28.320,30.273,-5.859
1584546776.188,23.926,25.879,28.320,12.207,-54.688
1584546776.192,36.621,25.879,25.391,-7.812,8.301
1584546776.196,27.344,22.949,23.438,1.465,62.988
1584546776.200,11.719,20.508,23.926,20.996,1.953
1584546776.204,13.184,23.438,21.973,7.812,-25.879
1584546776.208,31.250,26.855,22.461,-16.602,47.363
1584546776.212,36.621,25.879,23.438,-3.418,78.125
1584546776.216,22.949,28.809,27.344,22.461,29.785
1584546776.220,21.973,32.715,27.344,17.578,51.270
1584546776.224,36.133,29.785,23.438,-8.301,18.066
1584546776.228,34.668,25.879,23.926,-7.324,-40.039
1584546776.231,17.090,26.367,25.879,19.531,37.598
1584546776.235,11.719,27.832,25.391,15.625,80.566
1584546776.239,26.367,26.855,24.902,-12.695,26.855
1584546776.243,36.133,23.926,25.391,-24.414,30.273
1584546776.247,21.484,24.902,20.508,-10.254,23.926
1584546776.251,12.695,28.320,20.996,8.789,-5.859
1584546776.255,20.996,25.879,22.461,-9.277,12.207
1584546776.259,34.180,25.391,26.855,-26.367,16.113
1584546776.263,31.250,27.832,29.297,-3.906,-3.418
1584546776.267,14.648,30.273,23.926,19.043,11.230
1584546776.270,17.578,29.785,24.902,8.789,-6.348
1584546776.274,36.621,29.785,27.344,-7.324,-2.930
1584546776.278,39.551,27.344,24.902,4.395,93.750
1584546776.282,20.020,24.414,31.250,26.367,55.664
1584546776.286,13.184,26.855,34.668,21.484,-5.371
1584546776.290,28.320,27.344,25.879,-5.859,62.012
1584546776.294,31.250,27.832,21.973,-8.789,34.180
1584546776.298,17.578,25.879,30.273,9.277,28.320
1584546776.302,11.719,26.367,36.621,9.766,13.184
1584546776.306,27.832,31.738,32.715,-9.277,-14.160
1584546776.310,42.480,28.809,28.809,-15.625,2.930
1584546776.313,32.715,29.297,33.691,7.812,3.418
1584546776.317,18.066,37.598,36.133,21.484,37.109
1584546776.321,21.973,35.156,28.809,-2.441,-12.695
1584546776.325,38.086,26.367,23.438,-20.508,1.953
1584546776.329,37.109,27.344,23.438,-7.324,58.594
1584546776.333,18.066,28.320,23.438,6.836,13.672
1584546776.337,15.625,26.855,23.438,-5.371,21.484
1584546776.341,31.250,25.391,27.344,-28.320,-38.086
1584546776.345,31.738,24.902,34.180,-20.020,-21.484
1584546776.349,17.090,30.273,37.109,2.930,80.566
1584546776.353,9.766,29.785,34.668,0.488,23.438
1584546776.356,24.414,22.949,31.250,-17.578,21.973
1584546776.360,39.062,24.414,32.227,-19.043,-8.789
1584546776.364,26.855,29.785,36.133,0.488,-35.645
1584546776.368,11.719,28.320,33.691,5.859,10.742
1584546776.372,25.879,24.414,30.762,-14.648,0.488
1584546776.376,44.922,26.367,32.227,-23.926,0.488
1584546776.380,34.180,29.297,33.203,-7.324,1.953
1584546776.384,9.766,24.902,29.785,4.395,-18.066
1584546776.388,9.277,23.926,25.879,-12.695,-12.695
1584546776.392,24.414,24.414,22.949,-32.715,50.781
1584546776.395,28.320,27.832,23.438,-18.555,95.703
1584546776.399,16.602,28.320,26.855,9.277,58.105
1584546776.403,15.625,25.879,25.391,0.488,82.520
1584546776.407,25.391,22.949,24.902,-25.391,69.824
1584546776.411,25.391,23.438,31.738,-20.508,56.641
1584546776.415,14.648,28.320,33.691,-1.953,62.012
1584546776.419,8.301,28.809,30.273,-6.348,27.344
1584546776.423,22.949,27.344,24.414,-30.273,28.809
1584546776.427,34.180,27.832,26.367,-27.832,38.086
1584546776.431,23.438,28.809,28.809,-1.465,41.992
1584546776.435,14.160,31.738,30.273,15.137,35.156
1584546776.438,24.902,30.762,31.250,-0.977,35.156
1584546776.442,38.574,23.926,27.344,-19.043,41.504
1584546776.446,32.715,24.902,26.855,-1.953,39.551
1584546776.450,16.113,32.227,23.926,13.672,56.152
1584546776.454,18.066,32.227,21.973,-1.465,94.727
1584546776.458,34.668,25.391,27.344,-17.578,125.488
1584546776.462,32.227,23.438,30.762,-4.883,57.617
1584546776.466,19.043,27.832,34.180,15.625,7.812
1584546776.470,17.090,30.762,34.180,8.301,21.484
1584546776.474,36.621,32.227,33.203,-11.230,60.547
1584546776.478,49.316,31.738,33.203,-0.977,49.316
1584546776.481,31.250,30.762,32.227,22.461,13.184
1584546776.485,19.531,30.762,26.367,24.902,-16.602
1584546776.489,28.320,27.344,25.391,1.465,50.781
1584546776.493,38.574,25.391,27.344,-15.625,32.715
1584546776.497,31.250,32.227,28.809,8.789,-14.648
1584546776.501,17.578,33.691,32.715,32.227,-20.996
1584546776.505,22.949,26.855,35.645,7.324,-9.766
1584546776.509,36.621,27.832,37.109,-9.766,25.879
1584546776.513,32.227,27.832,31.738,8.789,40.527
1584546776.517,16.602,26.855,27.344,31.738,19.531
1584546776.520,14.648,27.832,25.391,17.578,-23.438
1584546776.524,37.598,32.227,24.902,2.441,-23.926
1584546776.528,47.363,35.156,33.203,18.555,12.207
1584546776.532,26.855,33.203,37.109,34.668,20.508
1584546776.536,19.043,33.691,26.367,20.996,20.508
1584546776.540,34.668,32.715,21.484,-3.418,17.090
1584546776.544,41.016,28.809,26.367,2.930,40.527
1584546776.548,22.461,25.879,30.273,29.297,66.895
1584546776.552,15.137,29.785,38.574,39.062,38.086
1584546776.556,28.320,30.762,40.527,14.160,58.594
1584546776.560,37.598,25.879,31.250,0.000,65.918
1584546776.563,24.902,23.926,18.555,18.066,86.426
1584546776.567,12.695,28.320,22.949,34.180,79.102
1584546776.571,21.973,31.738,31.738,17.090,42.969
1584546776.575,40.039,30.273,29.785,-3.906,31.250
1584546776.579,40.039,36.133,32.715,13.672,20.508
1584546776.583,16.602,33.203,38.086,37.598,28.809
1584546776.587,7.324,23.438,33.691,23.926,6.836
1584546776.591,23.438,21.973,25.391,-7.324,26.855
1584546776.595,30.762,20.996,25.391,8.301,6.836
1584546776.599,14.648,22.949,28.320,40.527,-15.137
1584546776.603,12.695,27.832,28.809,37.598,54.199
1584546776.606,32.715,29.297,28.809,8.301,55.664
1584546776.610,30.273,29.297,29.297,-5.371,-16.602
1584546776.614,12.695,32.715,35.645,20.508,-14.160
1584546776.618,10.254,33.691,40.039,36.621,21.973
1584546776.622,18.555,30.273,36.133,18.066,10.742
1584546776.626,27.344,23.438,26.367,-2.441,23.438
1584546776.630,19.043,21.973,24.902,15.625,42.480
1584546776.634,5.859,25.879,32.715,40.039,59.570
1584546776.638,17.090,26.367,33.203,30.762,35.156
1584546776.642,38.574,24.902,31.738,12.695,22.949
1584546776.645,38.086,28.320,30.762,20.508,37.109
1584546776.649,18.066,33.691,30.273,43.945,-9.766
1584546776.653,12.695,31.738,28.809,31.738,24.902
1584546776.657,29.785,25.879,28.809,4.883,34.668
1584546776.661,31.738,23.438,35.156,10.742,-11.719
1584546776.665,16.113,27.344,34.180,31.738,43.945
1584546776.669,10.742,30.273,32.227,39.551,43.945
1584546776.673,26.367,25.879,31.738,16.602,18.066
1584546776.677,33.691,25.391,25.391,6.836,3.906
1584546776.681,20.996,32.715,30.762,37.598,33.203
1584546776.685,11.230,32.227,34.668,47.363,37.598
1584546776.688,23.438,30.273,30.273,24.902,7.812
1584546776.692,32.715,27.344,27.344,12.207,42.969
1584546776.696,18.555,22.461,33.691,35.645,41.016
1584546776.700,8.789,21.973,37.109,53.711,27.832
1584546776.704,17.578,22.461,31.250,41.016,14.648
1584546776.708,34.180,21.484,27.344,19.531,-0.977
1584546776.712,29.297,21.973,28.809,24.902,26.367
1584546776.716,12.695,25.879,30.762,48.340,-27.832
1584546776.720,11.719,24.902,33.203,36.621,9.277
1584546776.724,28.320,24.902,33.203,18.066,67.383
1584546776.728,36.133,26.855,24.902,22.949,34.180
1584546776.731,22.461,29.785,28.809,43.457,51.270
1584546776.735,14.160,30.273,39.551,49.805,29.297
1584546776.739,26.855,27.344,33.691,31.738,8.301
1584546776.743,34.180,27.344,31.738,22.949,41.992
1584546776.747,19.043,28.320,35.156,43.945,54.688
1584546776.751,3.906,29.297,28.320,54.688,22.461
1584546776.755,12.207,33.203,25.879,32.715,8.789
1584546776.759,36.621,35.156,30.273,21.484,47.363
1584546776.763,27.832,28.320,29.297,36.621,42.480
1584546776.767,5.859,25.391,24.414,47.363,-26.367
1584546776.770,13.672,25.879,27.832,33.203,-36.621
1584546776.774,26.855,23.438,30.273,22.461,1.953
1584546776.778,24.902,22.461,26.855,25.391,-23.438
1584546776.782,7.812,24.902,22.461,36.621,-6.836
1584546776.786,7.324,29.297,23.926,36.621,41.504
1584546776.790,24.414,25.879,26.367,16.113,49.805
1584546776.794,26.367,23.438,23.926,16.602,56.152
1584546776.798,16.602,28.320,25.391,42.480,57.617
1584546776.802,12.695,29.785,31.250,51.758,78.613
1584546776.806,22.461,27.832,25.391,30.273,73.242
1584546776.810,29.785,24.902,20.996,18.066,50.293
1584546776.813,20.020,23.438,30.762,27.832,-43.457
1584546776.817,8.789,31.250,40.039,40.039,-44.922
1584546776.821,14.648,34.180,32.227,26.855,1.465
1584546776.825,29.297,25.391,21.973,3.418,-33.691
1584546776.829,26.855,28.320,31.250,22.461,-19.043
1584546776.833,4.395,32.715,31.250,47.363,55.176
1584546776.837,0.977,27.832,23.438,28.809,69.336
1584546776.841,22.949,23.926,24.902,12.207,47.852
1584546776.845,29.297,23.438,24.902,27.832,61.035
1584546776.849,10.254,25.879,29.785,51.758,45.898
1584546776.853,1.465,22.949,33.203,42.969,20.020
1584546776.856,18.555,19.531,32.715,13.184,47.363
1584546776.860,28.320,21.484,28.809,11.230,68.359
1584546776.864,17.090,24.902,27.344,34.180,52.734
1584546776.868,11.719,25.879,26.855,40.527,29.785
1584546776.872,24.902,25.879,22.949,20.508,-18.066
1584546776.876,40.527,30.273,26.367,16.113,5.859
1584546776.880,32.227,30.273,22.461,28.809,72.266
1584546776.884,14.160,28.809,21.484,43.457,27.832
1584546776.888,14.648,27.832,32.227,28.809,2.930
1584546776.892,25.879,22.461,33.203,4.395,-4.395
1584546776.895,20.996,25.879,31.250,16.113,-14.160
1584546776.899,7.812,27.832,29.785,38.574,29.297
1584546776.903,16.602,24.902,33.203,34.180,19.043
1584546776.907,38.574,22.949,28.809,18.555,19.043
1584546776.911,40.527,21.973,23.926,23.438,-1.465
1584546776.915,15.625,22.461,27.832,34.180,-12.695
1584546776.919,1.465,24.902,28.809,29.785,48.340
1584546776.923,24.902,24.902,33.203,18.555,20.996
1584546776.927,41.504,23.926,34.180,21.973,-3.906
1584546776.931,24.902,24.414,27.832,41.992,26.367
1584546776.935,9.766,24.414,25.391,50.781,38.086
1584546776.938,21.973,22.461,27.832,32.715,41.016
1584546776.942,40.527,22.461,31.738,20.996,63.965
1584546776.946,31.738,20.996,34.180,38.086,25.879
1584546776.950,13.184,19.531,31.738,51.758,-46.387
1584546776.954,21.484,27.832,27.832,37.598,21.484
1584546776.958,36.133,30.273,27.832,15.137,69.336
1584546776.962,29.785,24.902,24.902,19.043,23.926
1584546776.966,18.555,28.320,20.020,52.246,-14.160
1584546776.970,20.508,33.691,22.949,52.246,-25.879
1584546776.974,37.109,29.297,25.391,23.926,11.230
1584546776.978,46.875,28.809,31.250,25.879,33.691
1584546776.981,28.809,30.273,30.762,46.387,49.805
1584546776.985,12.695,28.320,29.297,45.898,53.711
1584546776.989,21.973,24.902,32.227,21.973,72.266
1584546776.993,29.297,22.461,27.832,13.672,88.867
1584546776.997,22.461,28.809,25.391,33.203,37.109
1584546777.001,10.742,29.297,23.926,45.410,-11.719
1584546777.005,20.996,27.832,26.855,24.902,9.766
1584546777.009,36.133,32.227,33.203,9.766,47.363
1584546777.013,30.273,28.320,27.832,30.762,49.805
1584546777.017,14.160,26.855,26.367,47.363,58.594
1584546777.020,16.602,29.297,33.691,32.715,65.918
1584546777.024,29.785,29.297,35.645,16.602,51.758
1584546777.028,30.762,28.809,35.645,24.414,11.719
1584546777.032,12.207,27.344,33.203,40.527,11.230
1584546777.036,7.812,28.809,31.250,39.551,3.418
1584546777.040,28.809,30.762,30.273,17.578,-62.988
1584546777.044,37.109,27.344,25.879,13.184,-42.480
1584546777.048,24.902,30.273,26.367,34.668,39.062
1584546777.052,12.207,32.715,30.273,41.992,8.301
1584546777.056,19.043,27.832,28.809,27.344,10.254
1584546777.060,32.715,25.391,28.320,16.602,55.176
1584546777.063,20.996,28.320,27.832,29.785,-0.488
1584546777.067,0.488,26.367,27.344,40.527,-26.855
1584546777.071,6.836,22.461,26.367,20.996,19.531
1584546777.075,27.832,21.973,26.367,8.789,37.598
1584546777.079,28.320,24.902,24.414,29.785,38.086
1584546777.083,15.137,29.785,29.297,51.758,-8.789
1584546777.087,14.648,28.809,30.273,41.016,-22.461
1584546777.091,31.250,27.832,19.531,16.602,17.090
1584546777.095,38.086,29.785,17.578,12.695,4.395
1584546777.099,18.555,33.691,23.926,33.203,-23.926
1584546777.103,9.277,31.250,23.438,37.598,-0.977
1584546777.106,26.367,26.855,23.926,18.555,35.156
1584546777.110,34.180,28.320,28.320,11.719,42.480
1584546777.114,23.438,29.785,35.156,34.668,10.254
1584546777.118,16.113,31.250,38.086,51.758,1.465
1584546777.122,25.879,30.762,35.156,32.227,4.395
1584546777.126,42.969,29.785,30.762,17.578,2.441
1584546777.130,34.180,31.250,20.996,29.297,39.062
1584546777.134,9.766,26.367,20.508,38.574,44.434
1584546777.138,18.555,23.926,30.762,27.344,13.672
1584546777.142,39.062,25.391,28.809,10.254,-15.625
1584546777.145,37.598,29.785,23.926,25.391,-26.367
1584546777.149,22.461,31.738,28.320,51.758,0.488
1584546777.153,14.160,29.297,29.785,36.621,65.918
1584546777.157,28.320,29.297,29.785,3.906,83.008
1584546777.161,35.156,24.902,31.250,12.207,71.289
1584546777.165,18.555,21.484,29.785,39.062,97.168
1584546777.169,11.719,24.414,25.879,40.527,71.777
1584546777.173,22.461,29.297,22.949,17.578,26.855
1584546777.177,36.133,32.227,28.809,12.695,-16.113
1584546777.181,36.133,31.738,35.645,36.133,-27.344
1584546777.185,15.137,32.715,34.180,44.922,-31.738
1584546777.188,11.719,31.738,35.156,23.926,-25.391
1584546777.192,30.273,27.344,26.367,7.812,-0.488
1584546777.196,29.785,26.855,21.484,21.484,30.762
1584546777.200,12.695,28.809,34.180,33.691,-6.348
1584546777.204,8.789,26.367,28.809,19.043,-15.625
1584546777.208,25.391,25.391,17.578,4.395,-12.207
1584546777.212,31.250,27.832,29.297,20.020,13.672
1584546777.216,15.137,32.715,37.109,46.387,72.754
1584546777.220,6.836,33.203,36.133,32.715,36.133
1584546777.224,22.461,26.855,33.691,6.836,35.156
1584546777.228,32.715,25.879,26.855,15.137,33.691
1584546777.231,15.625,31.250,24.902,32.227,46.875
1584546777.235,2.441,28.809,25.879,36.133,45.898
1584546777.239,20.020,25.879,26.367,20.996,8.789
1584546777.243,31.738,25.879,22.461,9.766,-2.930
1584546777.247,19.531,28.320,24.902,25.879,0.488
1584546777.251,7.324,32.715,33.203,37.598,54.688
1584546777.255,15.137,26.367,31.738,20.996,62.500
1584546777.259,31.738,26.855,23.438,4.883,69.336
1584546777.263,22.949,28.809,21.973,18.066,63.965
1584546777.267,3.906,26.855,24.902,36.621,19.043
1584546777.270,7.812,28.320,24.902,28.320,-2.441
1584546777.274,25.391,23.926,24.414,14.160,-3.906
1584546777.278,25.391,22.949,28.809,19.531,21.484
1584546777.282,11.719,27.832,36.621,43.457,-20.020
1584546777.286,15.625,28.809,36.621,49.805,-45.410
1584546777.290,28.809,26.855,29.785,19.531,-28.320
1584546777.294,30.273,23.438,27.344,12.695,15.137
1584546777.298,20.020,25.879,25.391,41.016,35.645
1584546777.302,14.160,32.715,26.367,48.340,13.184
1584546777.306,27.832,34.180,32.227,28.320,20.020
1584546777.310,42.969,34.668,34.668,20.996,33.203
1584546777.313,30.273,33.203,33.203,38.574,32.715
1584546777.317,9.277,29.297,31.738,51.270,42.969
1584546777.321,16.113,28.320,31.250,32.715,47.852
1584546777.325,34.180,25.879,27.832,9.277,23.926
1584546777.329,30.762,24.902,23.438,25.391,64.941
1584546777.333,11.719,26.855,23.926,42.969,57.129
1584546777.337,9.277,30.762,26.855,28.809,26.367
1584546777.341,29.297,31.738,27.344,13.184,20.020
1584546777.345,39.062,30.273,33.691,26.855,-8.789
1584546777.349,24.902,34.180,37.109,55.176,-7.324
1584546777.353,13.184,36.621,31.250,44.922,35.156
1584546777.356,27.832,32.715,27.832,19.043,76.660
1584546777.360,44.922,34.668,29.785,23.926,74.707
1584546777.364,24.902,32.715,29.785,46.387,4.395
1584546777.368,7.324,29.785,25.391,44.434,-22.949
1584546777.372,20.020,30.273,22.949,22.949,25.391
1584546777.376,32.715,27.832,24.902,13.184,37.598
1584546777.380,26.855,29.297,32.227,21.973,38.086
1584546777.384,8.301,30.762,37.598,45.898,4.883
1584546777.388,8.789,26.855,32.715,33.203,25.391
1584546777.392,31.250,25.879,30.273,8.789,73.242
1584546777.395,35.156,27.832,33.203,26.855,58.594
1584546777.399,15.137,25.391,29.297,45.898,10.742
1584546777.403,9.277,26.855,27.832,28.809,-4.883
1584546777.407,28.809,28.809,24.414,7.324,19.043
1584546777.411,36.621,24.414,20.996,13.184,-2.441
1584546777.415,22.461,27.344,28.320,28.809,-18.555
1584546777.419,9.766,30.273,30.762,26.367,14.648
1584546777.423,20.996,27.344,27.344,3.418,15.625
1584546777.427,29.297,25.879,25.879,-3.906,20.996
1584546777.431,12.207,26.367,29.297,16.113,24.902
1584546777.435,1.953,24.902,29.785,37.109,22.461
1584546777.438,15.137,26.367,23.926,21.973,40.527
1584546777.442,30.273,29.297,25.879,4.395,57.129
1584546777.446,19.531,28.809,30.273,20.508,37.598
1584546777.450,3.906,27.832,31.250,38.574,47.363
1584546777.454,8.301,25.391,28.809,23.438,39.062
1584546777.458,30.273,26.855,31.250,4.883,6.348
1584546777.462,33.691,29.785,36.621,17.578,60.059
1584546777.466,11.230,30.762,33.691,39.062,68.359
1584546777.470,8.301,29.785,25.391,27.832,54.688
1584546777.474,23.926,27.344,20.508,0.488,10.742
1584546777.478,29.297,26.367,20.508,10.254,4.395
1584546777.481,20.996,27.344,24.902,34.180,28.320
1584546777.485,7.812,27.344,27.832,33.691,26.855
1584546777.489,23.926,25.879,24.902,10.742,54.199
1584546777.493,48.340,23.926,26.367,9.766,64.941
1584546777.497,29.785,28.320,32.227,31.738,62.988
1584546777.501,7.812,30.273,35.156,41.016,38.574
1584546777.505,20.508,26.367,32.715,27.344,25.879
1584546777.509,37.109,24.414,31.250,10.742,19.531
1584546777.513,28.809,26.367,30.273,15.137,34.180
1584546777.517,11.230,25.391,30.762,35.156,7.324
1584546777.520,13.672,24.902,29.785,33.203,-5.371
1584546777.524,29.785,25.879,25.879,12.695,36.621
1584546777.528,34.180,22.949,24.902,18.555,37.598
1584546777.532,18.066,25.879,25.879,33.203,-1.953
1584546777.536,9.277,31.250,29.785,31.250,22.949
1584546777.540,25.391,27.832,32.227,16.602,56.641
1584546777.544,35.156,23.438,34.668,16.602,37.109
1584546777.548,18.555,23.438,35.156,35.645,-18.555
1584546777.552,7.812,23.926,36.133,40.527,22.949
1584546777.556,19.043,20.508,35.156,18.066,38.086
1584546777.560,31.738,20.508,29.785,-0.977,-1.465
1584546777.563,24.902,25.391,29.785,19.531,-16.602
1584546777.567,11.230,26.367,32.227,41.504,-14.648
1584546777.571,16.113,24.414,27.832,20.996,-0.977
1584546777.575,33.203,26.367,21.973,2.930,31.738
1584546777.579,36.133,31.738,26.367,21.973,92.773
1584546777.583,20.020,31.738,32.227,43.457,47.363
1584546777.587,14.648,28.320,31.738,37.598,-19.043
1584546777.591,33.203,28.809,31.738,11.719,20.996
1584546777.595,39.062,27.832,25.391,8.301,23.438
1584546777.599,18.555,26.855,24.902,28.320,29.297
1584546777.603,9.766,29.785,31.250,32.715,41.504
1584546777.606,27.832,28.809,32.715,12.207,39.062
1584546777.610,41.016,27.344,30.273,7.812,66.406
1584546777.614,28.809,29.785,26.367,27.344,38.574
1584546777.618,16.113,29.297,26.367,33.203,18.066
1584546777.622,21.484,28.809,26.855,16.113,46.875
1584546777.626,30.762,28.320,26.855,2.441,49.316
1584546777.630,23.926,26.367,27.832,15.625,17.578
1584546777.634,8.301,26.855,26.367,37.598,19.043
1584546777.638,17.090,27.344,28.809,29.297,12.207
1584546777.642,37.598,29.297,27.344,11.230,19.043
1584546777.645,36.621,32.227,27.344,23.926,66.895
1584546777.649,18.066,28.809,33.691,41.016,36.133
1584546777.653,14.160,22.949,29.785,30.273,-6.836
1584546777.657,32.715,23.438,20.996,5.859,6.348
1584546777.661,32.227,22.461,20.020,3.418,15.137
1584546777.665,12.207,25.391,26.855,20.996,13.184
1584546777.669,9.277,27.832,28.809,26.855,-32.227
1584546777.673,29.785,26.855,29.785,11.719,-35.156
1584546777.677,43.945,30.762,29.297,9.277,19.531
1584546777.681,25.879,28.809,23.926,29.785,55.664
1584546777.685,9.766,27.832,22.461,36.133,58.105
1584546777.688,23.926,28.320,21.484,20.508,14.160
1584546777.692,40.527,25.391,28.809,11.719,-13.672
1584546777.696,31.738,27.344,35.156,26.855,25.879
1584546777.700,14.648,31.738,27.832,45.410,90.820
1584546777.704,16.113,26.367,24.902,31.738,-7.812
1584546777.708,29.785,22.949,27.832,6.836,-2.441
1584546777.712,33.203,28.809,25.879,11.230,28.320
1584546777.716,24.414,31.250,28.320,38.574,-21.484
1584546777.720,17.578,29.297,31.250,39.062,47.852
1584546777.724,30.273,29.785,31.738,18.066,67.383
1584546777.728,37.109,26.367,28.809,13.672,13.184
1584546777.731,20.508,24.414,29.785,34.668,-29.297
1584546777.735,14.160,23.438,31.738,35.156,-4.395
1584546777.739,24.414,21.484,28.320,15.137,20.020
1584546777.743,34.668,27.344,28.320,13.184,-11.719
1584546777.747,27.344,31.738,37.598,34.668,5.859
1584546777.751,9.766,27.832,36.621,47.852,-24.414
1584546777.755,16.602,24.414,28.320,20.508,-13.184
1584546777.759,37.109,31.738,31.738,9.277,68.359
1584546777.763,36.133,32.715,35.645,34.668,74.219
1584546777.767,14.648,28.320,37.109,49.805,52.734
1584546777.770,11.719,27.832,32.715,31.738,17.578
1584546777.774,31.738,25.879,23.438,18.066,1.953
1584546777.778,37.598,25.391,28.320,30.273,5.859
1584546777.782,23.438,22.949,36.621,48.828,26.855
1584546777.786,18.066,23.438,33.203,38.086,42.969
1584546777.790,20.996,25.879,27.344,-4.883,34.180
1584546777.794,20.020,30.762,23.926,-23.926,83.496
1584546777.798,15.137,34.668,27.344,-0.488,60.547
1584546777.802,6.836,31.250,28.320,6.836,16.113
1584546777.806,19.043,28.809,23.926,-15.137,71.777
1584546777.810,37.598,29.785,27.344,-18.066,83.008
1584546777.813,28.809,32.227,30.273,1.953,55.664
1584546777.817,8.789,32.227,30.273,14.648,42.480
1584546777.821,15.137,29.785,28.809,0.488,38.086
1584546777.825,38.086,28.320,28.320,-18.066,57.129
1584546777.829,35.156,29.785,32.715,-5.859,81.055
1584546777.833,12.695,29.297,28.809,10.742,72.754
1584546777.837,16.602,25.391,26.367,3.906,68.848
1584546777.841,39.551,25.879,34.668,-6.348,63.965
1584546777.845,43.457,28.320,37.109,-2.441,28.809
1584546777.849,25.391,29.297,38.086,18.555,26.855
1584546777.853,12.207,25.391,35.645,18.066,41.016
1584546777.856,27.344,24.414,29.785,-3.906,48.828
1584546777.860,38.574,27.344,29.297,-12.695,66.895
1584546777.864,25.879,33.203,31.250,17.090,34.668
1584546777.868,17.090,32.227,31.250,35.156,23.438
1584546777.872,24.902,29.785,31.250,9.766,51.270
1584546777.876,42.480,31.250,32.227,-0.488,-26.367
1584546777.880,38.574,32.227,23.438,19.531,-40.527
1584546777.884,21.484,32.227,23.926,40.039,15.625
1584546777.888,23.438,27.344,30.273,22.949,4.883
1584546777.892,39.062,27.344,30.273,2.441,20.020
1584546777.895,41.016,29.297,32.227,22.461,26.855
1584546777.899,23.438,30.762,32.227,45.898,26.367
1584546777.903,14.160,29.785,27.832,30.273,79.590
1584546777.907,30.762,28.809,26.367,6.836,26.367
1584546777.911,48.340,34.180,31.738,22.461,11.230
1584546777.915,30.273,31.738,29.297,52.246,4.395
1584546777.919,15.137,25.391,28.320,45.898,-18.066
1584546777.923,27.344,25.879,28.320,14.648,54.688
1584546777.927,40.039,24.414,22.461,12.207,76.172
1584546777.931,29.785,21.484,26.855,38.086,21.484
1584546777.935,12.207,20.020,34.180,51.270,48.340
1584546777.938,17.090,21.973,31.250,31.250,99.121
1584546777.942,36.133,23.926,28.320,16.602,46.875
1584546777.946,35.645,22.461,33.691,31.250,5.371
1584546777.950,17.090,20.996,35.645,40.039,0.488
1584546777.954,30.762,26.855,34.180,41.504,-20.020
1584546777.958,46.875,26.367,31.738,24.902,-25.879
1584546777.962,19.043,18.066,28.809,4.395,19.531
1584546777.966,-4.395,19.531,32.227,26.367,20.508
1584546777.970,5.371,24.414,31.738,35.645,-8.789
1584546777.974,19.043,23.438,21.973,4.395,-15.137
1584546777.978,19.531,26.367,21.484,1.465,-11.230
1584546777.981,10.742,31.738,35.156,31.738,36.133
1584546777.985,3.906,29.785,33.691,33.691,49.805
1584546777.989,17.578,27.344,23.926,7.324,13.672
1584546777.993,32.715,23.926,26.367,-0.977,6.348
1584546777.997,20.020,25.391,30.273,23.926,35.156
1584546778.001,3.906,25.879,27.832,41.504,80.078
1584546778.005,8.789,21.973,24.902,20.020,62.988
1584546778.009,28.809,21.973,24.414,2.441,5.371
1584546778.013,30.762,26.367,22.461,20.508,8.301
1584546778.017,12.695,29.297,27.832,41.504,-26.367
1584546778.020,14.648,31.738,27.832,29.785,-8.301
1584546778.024,35.645,28.809,21.973,7.324,59.082
1584546778.028,39.551,23.438,25.879,17.090,45.410
1584546778.032,21.973,24.902,30.273,41.504,17.090
1584546778.036,18.555,27.832,24.902,39.062,-2.930
1584546778.040,37.109,24.902,22.461,13.184,-1.953
1584546778.044,43.945,25.879,27.344,18.555,-9.766
1584546778.048,27.344,33.691,31.738,39.062,29.297
1584546778.052,14.160,33.691,31.738,39.551,62.500
1584546778.056,21.484,30.273,31.738,26.367,39.551
1584546778.060,32.715,27.344,28.320,18.066,22.461
1584546778.063,22.461,22.461,17.578,20.996,67.383
1584546778.067,5.859,22.949,19.531,34.668,78.125
1584546778.071,16.602,27.344,24.902,20.996,36.133
1584546778.075,34.180,26.367,25.391,5.371,0.488
1584546778.079,29.297,24.902,23.926,22.461,-18.555
1584546778.083,12.207,26.367,25.879,37.598,-3.418
1584546778.087,8.301,27.832,32.227,26.855,-3.906
1584546778.091,25.391,27.344,31.250,13.672,22.461
1584546778.095,31.738,25.879,30.762,23.926,38.086
1584546778.099,15.137,26.367,32.227,41.016,29.297
1584546778.103,5.859,25.391,31.250,37.109,-23.926
1584546778.106,21.973,21.973,27.344,17.578,-26.855
1584546778.110,37.109,20.996,21.973,16.602,11.230
1584546778.114,26.367,20.996,26.367,35.645,23.926
1584546778.118,9.766,20.996,32.227,45.898,54.199
1584546778.122,19.531,22.461,31.738,27.832,43.457
1584546778.126,39.551,25.391,33.691,14.648,0.977
1584546778.130,27.832,23.926,35.645,32.227,21.484
1584546778.134,13.672,26.367,37.109,52.734,68.848
1584546778.138,16.113,28.809,36.133,39.062,48.340
1584546778.142,28.809,20.996,33.203,9.277,22.461
1584546778.145,31.738,19.531,34.180,21.484,8.789
1584546778.149,14.648,24.902,35.156,51.270,4.395
1584546778.153,8.789,27.344,24.414,39.062,40.527
1584546778.157,23.926,25.879,20.020,17.578,71.289
1584546778.161,32.227,24.902,33.691,24.902,37.109
1584546778.165,17.090,28.809,38.086,44.434,28.809
1584546778.169,4.395,29.785,32.715,42.480,17.578
1584546778.173,17.578,26.367,33.203,19.531,11.719
1584546778.177,33.691,25.879,36.133,15.625,73.242
1584546778.181,22.949,26.855,37.598,36.133,86.914
1584546778.185,0.488,28.320,35.156,48.828,40.039
1584546778.188,5.859,26.367,28.320,24.902,-8.301
1584546778.192,31.250,25.879,32.715,13.672,-3.906
1584546778.196,24.902,25.879,31.738,32.227,7.324
1584546778.200,4.395,26.367,23.926,42.480,-15.625
1584546778.204,11.230,28.809,28.809,30.762,27.832
1584546778.208,31.738,25.879,31.250,11.230,11.719
1584546778.212,38.574,26.855,30.762,20.020,-3.906
1584546778.216,19.531,27.832,30.762,44.434,53.223
1584546778.220,8.301,22.461,29.297,39.062,61.523
1584546778.224,26.855,23.926,27.832,20.996,42.969
1584546778.228,39.551,25.391,21.484,21.484,64.941
1584546778.231,18.555,21.484,26.367,40.039,54.199
1584546778.235,1.465,23.438,30.762,38.086,5.371
1584546778.239,14.648,27.832,24.414,16.113,1.465
1584546778.243,28.809,28.809,24.414,10.254,1.953
1584546778.247,26.855,30.273,27.832,30.762,26.367
1584546778.251,13.672,31.738,29.785,44.922,-14.648
1584546778.255,17.578,30.762,26.367,22.949,-34.180
1584546778.259,29.785,26.855,24.414,8.301,32.715
1584546778.263,24.902,25.879,26.367,25.391,-10.254
1584546778.267,8.789,26.367,28.320,44.922,-28.809
1584546778.270,12.207,28.809,29.785,30.273,21.484
1584546778.274,35.645,31.738,29.297,4.883,-14.648
1584546778.278,40.039,33.203,23.438,12.695,-21.973
1584546778.282,19.043,31.250,24.414,33.691,11.719
1584546778.286,16.113,30.273,34.668,37.598,39.551
1584546778.290,33.203,29.785,36.133,22.949,57.129
1584546778.294,35.645,27.344,29.785,20.508,14.648
1584546778.298,16.113,26.855,26.855,36.621,3.906
1584546778.302,2.930,29.785,31.250,43.457,51.758
1584546778.306,16.602,28.809,31.250,22.461,46.387
1584546778.310,32.227,21.484,26.855,12.207,28.320
1584546778.313,25.391,22.949,26.367,30.762,21.973
1584546778.317,9.766,27.344,27.344,46.875,40.527
1584546778.321,16.602,26.855,25.391,29.297,48.340
1584546778.325,31.738,24.902,16.602,8.301,63.477
1584546778.329,28.320,24.902,17.090,24.414,34.668
1584546778.333,12.207,26.367,26.855,43.945,6.348
1584546778.337,9.766,24.902,28.320,36.621,41.992
1584546778.341,27.832,22.461,22.949,16.113,40.039
1584546778.345,37.109,24.414,20.020,21.973,-7.324
1584546778.349,29.297,25.391,27.344,58.594,32.715
1584546778.353,27.344,24.902,36.621,73.730,70.312
1584546778.356,26.367,27.832,31.250,27.832,-1.953
1584546778.360,20.508,28.320,19.043,-3.906,-25.391
1584546778.364,20.996,32.227,21.484,35.156,7.812
1584546778.368,16.602,32.715,25.879,49.316,-21.484
1584546778.372,18.555,28.809,23.438,16.602,38.574
1584546778.376,35.156,28.809,20.020,13.672,30.762
1584546778.380,37.598,28.809,22.949,42.480,-32.715
1584546778.384,22.949,32.227,29.297,61.035,-30.762
1584546778.388,25.391,32.715,25.879,46.875,-13.184
1584546778.392,47.363,32.227,19.043,34.180,23.438
1584546778.395,47.363,32.715,21.484,44.434,33.691
1584546778.399,28.809,32.715,28.320,61.523,25.391
1584546778.403,30.762,31.250,30.273,55.664,21.484
1584546778.407,45.410,29.785,31.738,34.668,41.016
1584546778.411,49.805,31.250,35.156,41.992,44.434
1584546778.415,36.133,32.715,34.180,59.570,55.664
1584546778.419,24.414,34.180,29.785,55.664,41.016
1584546778.423,36.133,29.785,29.785,36.133,14.160
1584546778.427,40.527,25.879,29.785,26.367,82.520
1584546778.431,26.367,28.320,27.344,40.527,76.172
1584546778.435,17.578,31.738,23.926,54.199,39.551
1584546778.438,23.926,29.297,20.020,37.598,-6.348
1584546778.442,41.992,29.297,25.391,26.367,-25.879
1584546778.446,37.109,31.738,32.715,45.410,14.648
1584546778.450,20.996,32.715,31.250,59.570,17.578
1584546778.454,27.832,31.738,28.809,44.922,8.301
1584546778.458,42.969,27.344,27.832,26.367,-9.277
1584546778.462,43.457,29.297,24.414,26.855,-22.949
1584546778.466,25.879,35.645,25.391,50.293,-13.672
1584546778.470,18.555,32.227,27.344,52.246,12.695
1584546778.474,31.738,26.367,24.902,26.367,20.508
1584546778.478,41.992,31.250,22.949,24.902,15.137
1584546778.481,29.785,33.203,23.926,49.805,23.438
1584546778.485,18.066,30.762,29.297,56.152,51.758
1584546778.489,27.344,28.809,28.809,32.227,30.762
1584546778.493,39.062,26.367,21.484,20.508,-29.297
1584546778.497,27.832,28.320,21.484,42.480,41.016
1584546778.501,11.719,28.809,28.809,53.711,21.973
1584546778.505,20.508,27.344,32.227,28.320,-29.297
1584546778.509,35.645,28.809,27.832,15.137,10.742
1584546778.513,31.250,30.273,28.320,35.645,21.973
1584546778.517,19.043,33.691,31.738,52.246,50.781
1584546778.520,24.902,32.715,34.668,44.434,29.785
1584546778.524,41.992,28.320,34.668,29.785,-22.461
1584546778.528,41.992,27.832,31.738,36.133,7.324
1584546778.532,22.949,28.809,28.320,51.758,21.973
1584546778.536,14.648,29.785,26.855,45.410,-6.836
1584546778.540,29.297,26.855,25.391,28.320,-6.836
1584546778.544,40.039,25.879,27.344,27.832,16.113
1584546778.548,23.926,30.273,30.762,39.062,16.113
1584546778.552,7.324,28.809,27.344,39.062,18.066
1584546778.556,20.996,23.926,25.391,20.020,22.461
1584546778.560,33.691,22.949,30.273,12.207,-13.672
1584546778.563,23.926,23.438,36.133,32.227,-4.883
1584546778.567,12.695,23.926,35.156,41.992,42.969
1584546778.571,18.066,25.879,30.273,26.367,17.090
1584546778.575,32.715,26.855,25.879,12.695,41.992
1584546778.579,32.715,27.832,26.855,24.414,84.473
1584546778.583,20.020,27.832,29.785,47.852,23.926
1584546778.587,16.602,26.855,27.344,39.062,17.578
1584546778.591,29.785,23.926,29.297,16.602,21.973
1584546778.595,36.133,20.996,29.785,16.602,6.348
1584546778.599,18.555,24.902,29.297,39.551,31.250
1584546778.603,13.672,30.762,34.180,48.340,67.871
1584546778.606,29.297,27.344,31.738,22.461,65.918
1584546778.610,29.297,22.949,26.855,11.719,41.504
1584546778.614,13.184,22.949,23.438,37.109,32.227
1584546778.618,7.324,18.555,27.344,54.199,16.602
1584546778.622,29.297,20.020,31.738,33.203,41.504
1584546778.626,37.109,26.367,31.738,1.465,37.598
1584546778.630,18.555,31.250,25.391,13.184,14.648
1584546778.634,2.441,32.227,17.578,37.598,39.551
1584546778.638,-0.488,30.762,20.996,13.184,78.125
1584546778.642,15.625,32.227,26.367,-11.230,82.031
1584546778.645,20.020,34.180,27.344,11.719,63.965
1584546778.649,4.883,32.227,25.391,37.598,67.383
1584546778.653,-0.488,30.273,25.879,29.297,52.246
1584546778.657,23.438,30.762,25.879,6.836,61.523
1584546778.661,38.574,30.273,28.809,11.719,65.918
1584546778.665,19.531,27.344,33.203,36.133,37.598
1584546778.669,3.906,24.902,31.738,36.133,0.977
1584546778.673,16.602,26.855,27.344,18.555,2.930
1584546778.677,29.785,26.367,21.973,14.160,42.969
1584546778.681,16.113,24.414,26.367,27.832,70.312
1584546778.685,-2.930,23.438,30.273,35.156,19.043
1584546778.688,12.207,27.344,27.832,16.113,34.668
1584546778.692,34.180,30.762,27.832,10.254,61.035
1584546778.696,24.414,26.367,29.297,23.926,39.551
1584546778.700,9.277,27.344,32.227,33.691,39.062
1584546778.704,12.695,31.250,28.809,24.414,39.551
1584546778.708,30.762,29.297,17.090,7.324,1.953
1584546778.712,39.551,29.785,26.367,17.578,43.457
1584546778.716,25.879,30.762,33.691,33.203,63.965
1584546778.720,17.578,27.832,35.156,32.715,24.414
1584546778.724,34.668,26.367,38.086,23.926,5.371
1584546778.728,39.551,25.391,31.250,14.648,14.160
1584546778.731,19.531,23.926,29.785,25.391,9.277
1584546778.735,8.301,22.461,31.738,34.668,-65.918
1584546778.739,20.508,23.438,26.855,13.184,-22.949
1584546778.743,37.598,25.391,23.926,2.930,17.090
1584546778.747,27.832,26.855,22.949,25.391,-10.742
1584546778.751,6.348,29.785,25.391,39.062,-46.387
1584546778.755,18.066,32.227,28.809,22.461,-21.484
1584546778.759,41.016,30.273,30.273,12.695,37.598
1584546778.763,30.762,27.344,28.320,25.879,24.902
1584546778.767,10.742,29.297,26.855,44.434,40.039
1584546778.770,14.160,27.832,25.879,35.645,54.688
1584546778.774,30.273,22.949,25.391,12.207,20.508
1584546778.778,26.855,21.973,25.391,11.719,-14.160
1584546778.782,10.742,25.391,25.879,38.086,38.574
1584546778.786,7.812,25.879,31.250,41.504,40.039
1584546778.790,20.020,21.484,28.320,7.812,10.742
1584546778.794,38.574,25.879,28.320,5.859,-6.348
1584546778.798,31.738,33.691,36.133,41.016,21.484
1584546778.802,12.207,30.273,36.133,47.363,51.270
1584546778.806,20.508,24.414,32.715,22.949,26.367
1584546778.810,33.691,27.344,29.297,11.719,12.695
1584546778.813,25.879,27.832,25.879,28.809,-3.906
1584546778.817,13.672,25.391,23.926,41.992,55.176
1584546778.821,11.230,27.832,24.902,21.484,45.410
1584546778.825,21.973,27.344,28.320,6.348,15.137
1584546778.829,26.855,26.855,32.715,24.414,59.082
1584546778.833,10.254,27.344,31.250,41.992,59.082
1584546778.837,8.301,28.809,27.344,37.598,18.066
1584546778.841,28.809,29.785,26.855,16.602,17.090
1584546778.845,35.156,26.367,29.297,13.184,20.020
1584546778.849,14.648,24.902,27.832,32.715,61.523
1584546778.853,7.812,24.414,25.391,36.133,37.598
1584546778.856,26.855,27.832,25.879,21.484,4.395
1584546778.860,35.156,30.273,26.367,11.230,25.391
1584546778.864,20.020,26.855,28.320,26.367,25.391
1584546778.868,9.766,26.855,32.715,37.598,20.996
1584546778.872,20.020,29.297,33.691,20.020,19.043
1584546778.876,30.762,25.879,29.297,1.465,33.691
1584546778.880,18.555,25.391,25.879,14.160,15.137
1584546778.884,0.977,29.297,24.902,33.203,33.691
1584546778.888,8.789,29.297,24.902,24.414,41.016
1584546778.892,21.973,25.879,26.367,6.348,19.043
1584546778.895,22.949,25.391,28.809,15.137,46.387
1584546778.899,14.160,27.344,34.180,40.039,44.922
1584546778.903,14.160,25.879,34.180,38.086,31.738
1584546778.907,31.738,22.949,31.738,18.066,50.781
1584546778.911,32.227,23.926,30.273,20.508,86.914
1584546778.915,12.207,26.855,30.273,38.086,54.199
1584546778.919,6.836,28.320,29.785,39.551,9.277
1584546778.923,23.438,26.855,28.809,12.207,66.895
1584546778.927,38.574,26.855,28.320,0.977,53.711
1584546778.931,29.297,31.250,28.320,31.250,43.945
1584546778.935,13.184,30.762,28.809,46.387,45.410
1584546778.938,22.949,27.832,31.250,29.297,31.738
1584546778.942,41.016,27.832,34.668,19.531,69.336
1584546778.946,39.062,28.320,38.086,41.504,48.828
1584546778.950,22.461,30.273,37.598,56.152,62.500
1584546778.954,8.301,31.738,28.320,22.949,46.387
1584546778.958,19.531,27.832,24.414,-9.766,41.016
1584546778.962,29.297,28.809,26.855,5.859,69.824
1584546778.966,10.254,31.250,26.367,27.344,21.973
1584546778.970,2.930,28.320,27.344,17.090,16.113
1584546778.974,21.973,28.809,23.438,-3.418,9.277
1584546778.978,33.203,29.785,20.508,6.836,-30.762
1584546778.981,17.090,29.785,21.484,32.715,-9.277
1584546778.985,11.230,31.250,29.297,40.527,8.789
1584546778.989,28.809,31.250,34.180,17.578,10.742
1584546778.993,39.551,29.297,32.227,2.930,-15.625
1584546778.997,29.785,31.250,34.668,26.367,-33.203
1584546779.001,16.602,32.227,35.645,40.039,34.180
1584546779.005,19.531,28.809,33.691,17.578,18.066
1584546779.009,25.879,26.367,31.738,4.395,-20.020
1584546779.013,29.297,25.879,33.691,22.461,-8.301
1584546779.017,18.066,26.855,31.250,43.945,13.672
1584546779.020,17.578,28.809,31.250,36.133,65.430
1584546779.024,37.109,27.832,29.785,15.625,76.660
1584546779.028,33.203,23.438,22.461,14.160,54.199
1584546779.032,13.672,25.879,29.785,35.156,-11.230
1584546779.036,10.742,28.320,31.250,39.062,-36.133
1584546779.040,29.297,24.414,26.367,14.160,47.363
1584546779.044,38.086,20.508,27.344,10.254,58.594
1584546779.048,22.461,23.438,29.297,33.203,5.371
1584546779.052,8.789,25.879,29.297,48.340,-32.715
1584546779.056,20.020,23.926,25.391,30.762,9.277
1584546779.060,35.156,24.414,20.508,15.625,37.598
1584546779.063,26.367,27.344,26.855,32.227,29.785
1584546779.067,12.695,27.344,34.668,46.875,12.207
1584546779.071,18.555,21.484,26.367,27.344,3.418
1584546779.075,39.062,21.973,22.949,8.301,12.207
1584546779.079,35.645,25.391,30.273,27.832,6.836
1584546779.083,17.090,25.391,31.250,57.129,17.578
1584546779.087,17.090,24.902,27.832,52.734,68.848
1584546779.091,31.250,23.926,26.367,23.926,76.172
1584546779.095,36.133,24.902,27.832,25.391,34.180
1584546779.099,23.926,26.367,30.273,56.152,20.996
1584546779.103,19.043,25.879,32.715,62.012,-3.418
1584546779.106,22.949,23.438,33.203,31.738,11.719
1584546779.110,31.738,23.926,32.227,23.926,38.086
1584546779.114,25.391,25.391,33.691,51.758,23.438
1584546779.118,12.207,23.926,29.785,58.594,34.668
1584546779.122,24.902,28.809,28.809,39.551,26.367
1584546779.126,40.527,33.691,28.320,33.691,18.555
1584546779.130,34.668,35.156,28.320,48.828,22.949
1584546779.134,21.484,33.691,28.809,66.406,0.000
1584546779.138,24.902,27.344,30.762,56.152,41.992
1584546779.142,40.527,28.809,30.273,33.691,26.855
1584546779.145,45.898,34.180,26.855,44.434,-21.484
1584546779.149,25.879,31.738,29.785,64.941,7.812
1584546779.153,12.695,29.297,30.273,51.758,10.254
1584546779.157,24.414,28.320,32.227,27.832,5.859
1584546779.161,28.320,27.832,33.203,32.227,51.270
1584546779.165,15.625,29.785,31.250,49.316,24.902
1584546779.169,8.301,31.250,32.715,51.758,9.766
1584546779.173,21.484,29.297,32.227,32.227,10.254
1584546779.177,33.691,25.879,31.250,23.926,-16.602
1584546779.181,16.602,23.438,28.809,39.062,23.438
1584546779.185,2.930,25.879,27.344,53.711,56.152
1584546779.188,13.184,27.344,25.879,41.992,42.480
1584546779.192,26.855,23.926,24.902,24.414,22.949
1584546779.196,24.414,25.879,27.344,32.715,76.660
1584546779.200,11.230,28.809,30.273,51.270,32.227
1584546779.204,13.672,27.344,32.715,54.688,-64.453
1584546779.208,29.785,23.926,31.738,33.691,15.625
1584546779.212,32.227,22.949,30.762,30.762,29.785
1584546779.216,11.230,25.391,33.691,55.664,41.992
1584546779.220,8.301,26.367,33.203,55.664,48.828
1584546779.224,30.273,26.367,27.832,39.551,37.109
1584546779.228,38.574,26.855,25.879,35.156,8.789
1584546779.231,23.438,25.391,26.855,48.828,-10.742
1584546779.235,13.672,27.832,30.762,56.152,36.621
1584546779.239,22.461,25.391,33.691,35.156,29.297
1584546779.243,39.062,25.879,34.180,27.344,44.434
1584546779.247,32.227,29.785,31.738,50.293,37.109
1584546779.251,12.207,23.926,29.297,56.641,29.297
1584546779.255,15.137,22.461,25.391,31.738,46.875
1584546779.259,28.320,26.855,22.461,20.020,65.430
1584546779.263,28.809,28.809,24.414,42.480,14.160
1584546779.267,14.648,29.297,30.273,67.871,25.879
1584546779.270,13.184,28.320,29.297,52.734,36.133
1584546779.274,31.250,27.344,20.996,21.484,30.273
1584546779.278,35.645,30.762,17.578,28.320,32.227
1584546779.282,16.602,29.297,25.879,54.688,24.902
1584546779.286,9.766,28.320,33.691,49.805,24.414
1584546779.290,29.785,30.273,29.785,21.973,-42.969
1584546779.294,39.551,33.203,29.297,24.414,9.277
1584546779.298,23.926,32.227,30.762,44.922,31.738
1584546779.302,11.230,28.320,30.273,43.457,9.277
1584546779.306,17.578,26.855,30.762,24.414,13.672
1584546779.310,32.715,27.832,24.902,10.254,0.977
1584546779.313,26.367,29.785,24.902,24.902,17.578
1584546779.317,13.184,29.785,32.715,39.551,14.648
1584546779.321,17.578,28.809,32.227,30.762,8.789
1584546779.325,33.691,28.320,25.879,19.531,32.715
1584546779.329,33.203,32.715,28.320,31.250,18.066
1584546779.333,18.066,35.645,36.621,55.176,-3.906
1584546779.337,13.672,27.832,31.250,41.016,7.812
1584546779.341,30.762,24.902,23.438,16.602,-13.672
1584546779.345,35.156,25.391,23.438,17.090,-20.996
1584546779.349,16.113,25.879,26.855,36.621,12.207
1584546779.353,8.789,31.738,27.344,43.457,40.527
1584546779.356,23.926,29.785,29.297,20.508,10.742
1584546779.360,33.203,21.484,34.668,15.137,-16.602
1584546779.364,17.090,24.414,34.668,32.715,17.578
1584546779.368,4.395,30.273,29.785,36.133,-1.953
1584546779.372,8.789,24.414,29.297,9.277,26.855
1584546779.376,21.484,20.020,31.250,-4.395,57.617
1584546779.380,19.043,23.438,31.250,16.113,17.578
1584546779.384,4.395,24.414,30.762,32.227,20.508
1584546779.388,6.348,24.414,26.855,24.414,68.359
1584546779.392,22.461,25.879,23.438,9.277,61.035
1584546779.395,26.367,26.855,29.785,19.043,34.180
1584546779.399,12.695,28.320,34.180,44.922,33.203
1584546779.403,6.836,26.367,31.738,36.133,-11.719
1584546779.407,24.414,20.996,29.785,11.719,21.484
1584546779.411,39.062,21.973,32.227,20.508,59.570
1584546779.415,26.367,23.926,30.762,44.922,22.461
1584546779.419,4.395,20.996,26.855,39.062,34.668
1584546779.423,13.672,19.531,30.273,18.555,23.438
1584546779.427,29.297,23.926,29.785,15.137,19.531
1584546779.431,16.113,25.879,25.391,29.785,44.434
1584546779.435,4.395,26.855,29.297,41.504,80.566
1584546779.438,14.648,28.320,31.738,25.391,64.453
1584546779.442,30.273,27.832,30.762,11.719,44.922
1584546779.446,29.785,27.344,35.645,27.832,46.387
1584546779.450,12.695,24.414,38.086,43.457,23.438
1584546779.454,11.719,26.855,34.180,29.785,55.664
1584546779.458,35.156,31.250,30.762,17.090,41.992
1584546779.462,41.504,33.691,23.926,23.438,12.207
1584546779.466,18.066,34.180,23.438,44.434,49.805
1584546779.470,3.906,29.297,28.320,43.945,72.754
1584546779.474,20.020,22.949,30.762,15.625,54.199
1584546779.478,29.785,20.508,31.738,19.043,-18.555
1584546779.481,14.160,21.484,36.621,45.410,-4.395
1584546779.485,5.859,21.973,38.574,47.363,33.203
1584546779.489,20.996,21.484,35.156,32.227,-0.488
1584546779.493,37.598,22.949,30.273,22.461,10.742
1584546779.497,26.367,27.344,29.785,38.086,11.230
1584546779.501,13.184,34.668,33.691,60.547,-21.973
1584546779.505,20.020,38.086,25.879,45.410,20.996
1584546779.509,38.086,36.133,27.832,30.762,52.246
1584546779.513,33.203,29.785,35.645,41.016,23.438
1584546779.517,9.766,23.926,33.691,55.176,27.344
1584546779.520,14.160,21.973,33.203,50.781,53.223
1584546779.524,30.762,20.508,29.297,28.809,29.785
1584546779.528,35.645,22.461,26.855,24.902,31.738
1584546779.532,21.484,23.926,28.320,43.457,36.133
1584546779.536,13.184,25.879,28.320,47.852,38.574
1584546779.540,34.668,25.879,25.879,27.344,97.168
1584546779.544,48.340,29.785,22.949,28.809,49.316
1584546779.548,29.785,29.297,22.949,54.688,40.039
1584546779.552,19.043,26.367,25.391,59.570,25.391
1584546779.556,32.715,29.297,27.344,38.086,-2.441
1584546779.560,45.410,29.785,29.785,27.832,55.664
1584546779.563,35.156,27.832,32.715,42.969,0.488
1584546779.567,15.137,25.879,32.227,53.711,20.508
1584546779.571,14.648,27.344,27.832,35.156,52.246
1584546779.575,32.227,28.809,25.391,21.484,12.695
1584546779.579,34.180,32.715,24.414,32.227,21.484
1584546779.583,17.090,29.785,26.855,50.781,-13.672
1584546779.587,17.090,28.809,35.645,41.992,-5.859
1584546779.591,32.715,32.715,33.203,19.531,-9.277
1584546779.595,35.156,25.879,23.438,15.625,-5.371
1584546779.599,12.207,22.461,26.367,32.227,41.016
1584546779.603,-0.977,24.414,30.762,42.480,-10.254
1584546779.606,20.996,27.832,27.344,20.020,-23.438
1584546779.610,36.621,30.273,24.414,9.277,3.906
1584546779.614,27.832,30.762,28.809,37.109,36.621
1584546779.618,13.184,28.809,30.273,51.270,75.195
1584546779.622,18.555,24.902,27.344,28.320,29.785
1584546779.626,35.156,24.902,29.297,15.625,-32.715
1584546779.630,30.273,27.832,29.297,25.391,51.758
1584546779.634,8.301,30.762,28.320,42.480,77.637
1584546779.638,4.395,29.297,24.414,32.227,-0.488
1584546779.642,27.832,24.414,20.020,16.113,33.691
1584546779.645,34.668,26.855,27.344,32.715,58.594
1584546779.649,14.160,31.738,32.715,55.664,52.246
1584546779.653,10.254,30.762,32.715,49.316,27.344
1584546779.657,29.785,27.832,34.668,29.785,-7.812
1584546779.661,39.062,28.320,33.203,33.691,-30.273
1584546779.665,20.508,31.250,32.715,41.992,-20.508
1584546779.669,5.859,33.203,29.297,40.039,-12.695
1584546779.673,14.648,30.762,26.367,21.484,31.250
1584546779.677,24.414,27.832,30.762,8.789,103.516
1584546779.681,17.578,29.785,33.203,37.598,41.504
1584546779.685,10.742,31.738,35.156,58.105,56.152
1584546779.688,18.555,27.344,34.668,37.598,86.426
1584546779.692,25.391,22.949,24.414,17.090,74.219
1584546779.696,19.043,25.879,23.438,23.926,82.520
1584546779.700,8.301,28.809,33.691,42.480,22.461
1584546779.704,6.836,26.855,32.227,31.738,-17.090
1584546779.708,20.508,25.391,26.855,10.742,3.906
1584546779.712,26.855,26.855,24.414,21.484,9.766
1584546779.716,14.160,28.809,28.320,45.410,-26.367
1584546779.720,12.207,27.832,35.156,38.086,-47.363
1584546779.724,25.391,27.832,30.273,17.578,-47.852
1584546779.728,35.156,28.809,26.367,18.555,23.926
1584546779.731,22.461,27.344,31.738,43.457,40.039
1584546779.735,6.836,27.344,29.297,52.246,40.527
1584546779.739,16.602,25.879,24.414,27.344,56.641
1584546779.743,32.227,23.926,28.320,20.020,36.621
1584546779.747,25.879,25.391,30.762,36.621,11.719
1584546779.751,12.695,28.320,32.227,52.734,-18.555
1584546779.755,17.090,27.832,30.273,37.109,-11.230
1584546779.759,32.227,29.297,28.320,16.602,11.230
1584546779.763,35.156,29.785,32.715,34.668,-6.836
1584546779.767,13.672,23.438,25.879,44.434,43.457
1584546779.770,11.230,26.367,24.902,38.086,59.570
1584546779.774,32.227,28.320,24.414,25.879,13.184
1584546779.778,33.203,26.855,23.926,28.809,9.277
1584546779.782,17.090,31.250,30.273,53.223,7.324
1584546779.786,16.113,31.738,29.297,62.012,22.461
1584546779.790,29.297,25.879,30.762,34.668,32.227
1584546779.794,38.574,25.391,31.738,22.949,37.598
1584546779.798,22.461,27.344,31.738,44.922,12.207
1584546779.802,4.395,27.832,31.738,52.734,30.273
1584546779.806,15.625,24.902,28.809,31.738,56.152
1584546779.810,32.715,23.438,29.297,17.578,32.227
1584546779.813,24.902,25.879,27.832,31.250,25.391
1584546779.817,10.742,30.273,26.367,52.246,51.758
1584546779.821,18.555,28.320,28.320,36.621,46.875
1584546779.825,37.598,28.809,24.902,14.648,8.789
1584546779.829,36.133,28.320,25.391,29.297,16.113
1584546779.833,16.602,22.949,25.879,50.781,21.484
1584546779.837,8.789,23.926,22.461,39.551,6.836
1584546779.841,25.879,24.902,24.414,16.113,30.762
1584546779.845,35.156,26.367,30.273,24.902,25.879
1584546779.849,22.461,28.809,29.297,51.270,14.160
1584546779.853,12.207,26.367,25.879,43.457,32.715
1584546779.856,22.461,24.902,27.832,14.160,45.898
1584546779.860,39.062,27.832,29.297,17.578,11.719
1584546779.864,26.855,31.738,33.691,46.875,25.879
1584546779.868,9.766,28.320,34.180,53.223,19.531
1584546779.872,21.484,25.879,29.297,27.832,-8.789
1584546779.876,41.016,25.879,25.879,18.066,26.855
1584546779.880,35.156,28.809,24.414,34.668,78.125
1584546779.884,17.578,31.738,24.414,52.246,46.387
1584546779.888,20.508,24.414,22.949,41.992,19.531
1584546779.892,37.598,20.996,26.367,18.555,62.500
1584546779.895,37.109,28.320,31.738,22.949,62.012
1584546779.899,19.531,30.273,33.203,44.434,97.168
1584546779.903,12.207,24.414,29.297,38.574,83.984
1584546779.907,27.832,24.414,30.273,18.066,16.602
1584546779.911,38.086,27.344,31.250,18.555,43.457
1584546779.915,21.973,24.902,24.902,36.133,47.363
1584546779.919,10.742,25.879,27.832,41.504,8.301
1584546779.923,26.367,30.762,27.344,23.438,33.203
1584546779.927,38.574,28.320,20.508,17.090,37.598
1584546779.931,24.414,27.832,24.414,40.039,42.969
1584546779.935,13.672,30.762,30.762,53.711,46.387
1584546779.938,22.949,28.809,33.691,41.016,55.664
1584546779.942,37.598,24.414,29.785,25.879,90.332
1584546779.946,39.551,26.367,26.367,39.062,22.461
1584546779.950,21.973,28.809,31.250,50.781,6.348
1584546779.954,21.484,29.297,30.273,37.598,57.617
1584546779.958,43.945,28.809,25.391,17.578,46.875
1584546779.962,41.504,26.855,23.438,15.137,74.219
1584546779.966,13.672,25.879,25.391,39.062,53.223
1584546779.970,13.672,28.320,29.785,44.434,27.344
1584546779.974,33.691,31.250,30.273,22.949,88.379
1584546779.978,42.480,27.832,25.879,20.020,4.883
1584546779.981,28.320,26.367,24.902,41.016,-8.301
1584546779.985,9.766,27.344,26.367,46.387,45.410
1584546779.989,20.996,29.785,28.809,24.414,39.551
1584546779.993,40.527,29.785,31.738,10.254,66.406
1584546779.997,33.691,29.297,34.180,35.645,-1.953
1584546780.001,15.625,33.691,33.203,50.293,2.930
1584546780.005,15.137,30.762,26.855,26.855,45.410
1584546780.009,33.691,28.809,27.832,17.090,28.320
1584546780.013,36.133,30.273,25.391,32.227,-1.465
1584546780.017,15.625,24.902,22.461,42.480,2.441
1584546780.020,7.812,21.484,26.367,33.691,36.621
1584546780.024,29.297,22.949,25.391,15.625,-8.301
1584546780.028,32.715,22.949,21.973,19.043,-24.902
1584546780.032,10.254,21.973,26.367,39.062,-19.531
1584546780.036,3.906,25.391,29.297,38.086,-13.184
1584546780.040,20.508,25.879,25.879,20.508,-23.438
1584546780.044,36.133,27.832,29.297,24.414,-31.738
1584546780.048,25.391,30.762,34.668,46.875,53.223
1584546780.052,8.789,25.879,32.227,43.457,77.637
1584546780.056,12.207,20.508,26.855,19.531,23.926
1584546780.060,25.879,20.508,22.461,16.602,49.316
1584546780.063,22.461,25.879,22.949,35.156,107.422
1584546780.067,1.953,26.855,20.020,46.875,78.613
1584546780.071,5.859,26.367,19.531,35.156,35.156
1584546780.075,31.250,29.785,25.391,21.973,35.645
1584546780.079,41.504,31.738,28.809,35.156,76.172
1584546780.083,21.973,28.320,28.809,50.781,78.613
1584546780.087,10.254,26.367,27.344,37.598,22.949
1584546780.091,29.297,28.320,28.320,21.484,20.020
1584546780.095,36.621,24.902,27.832,22.461,32.227
1584546780.099,17.090,24.414,26.367,33.203,39.062
1584546780.103,7.324,26.367,25.391,41.992,-8.301
1584546780.106,17.578,25.879,28.320,23.926,20.996
1584546780.110,27.832,28.809,32.227,19.043,51.270
1584546780.114,21.973,28.809,27.344,38.086,24.414
1584546780.118,6.836,26.855,23.926,42.480,65.918
1584546780.122,9.277,28.809,23.926,23.438,60.547
1584546780.126,24.902,25.879,21.973,14.160,30.273
1584546780.130,25.879,21.484,23.926,28.809,30.273
1584546780.134,7.812,22.461,26.367,46.387,43.945
1584546780.138,10.254,21.973,27.832,31.738,44.434
1584546780.142,31.738,20.020,26.367,3.906,44.434
1584546780.145,37.598,25.879,26.855,16.113,44.434
1584546780.149,22.461,28.809,30.273,45.898,40.527
1584546780.153,15.137,26.367,28.320,35.645,-5.371
1584546780.157,35.156,26.367,32.715,16.602,-20.996
1584546780.161,41.504,26.855,35.645,20.996,-21.973
1584546780.165,22.461,27.832,29.297,38.574,-31.738
1584546780.169,21.973,29.785,28.809,48.340,-35.645
1584546780.173,30.762,24.902,29.785,26.855,12.207
1584546780.177,33.691,21.484,27.832,18.066,62.988
1584546780.181,24.414,24.414,27.832,40.527,27.832
1584546780.185,8.789,23.926,28.809,46.387,33.203
1584546780.188,20.020,24.902,26.855,28.320,54.688
1584546780.192,38.574,25.391,27.344,18.555,0.488
1584546780.196,24.902,21.973,26.855,28.809,-1.465
1584546780.200,9.277,25.391,28.320,44.922,54.688
1584546780.204,16.602,28.320,27.832,33.203,72.754
1584546780.208,31.250,24.902,22.949,8.789,41.016
1584546780.212,38.574,25.879,27.832,18.066,-50.293
1584546780.216,22.949,27.832,32.227,42.969,-31.738
1584546780.220,15.625,26.855,29.785,35.645,48.828
1584546780.224,35.645,27.344,30.273,17.090,19.531
1584546780.228,44.922,27.832,33.691,23.926,-26.367
1584546780.231,20.996,27.832,35.156,36.621,15.625
1584546780.235,4.883,27.832,31.738,41.016,69.336
1584546780.239,18.555,25.879,25.879,24.414,77.637
1584546780.243,32.227,21.484,22.461,12.695,99.609
1584546780.247,26.855,27.344,22.949,31.250,44.922
1584546780.251,14.160,28.320,22.949,47.363,18.066
1584546780.255,18.555,22.461,28.809,34.668,23.926
1584546780.259,33.691,24.414,32.715,16.113,30.762
1584546780.263,29.785,29.297,30.762,21.973,68.848
1584546780.267,11.230,26.367,31.250,44.434,22.949
1584546780.270,8.789,22.461,28.809,37.109,-46.875
1584546780.274,23.926,24.902,25.879,14.648,-34.668
1584546780.278,31.250,26.855,24.414,25.879,30.273
1584546780.282,12.207,23.926,25.879,44.922,2.930
1584546780.286,6.348,24.414,28.809,41.016,-30.762
1584546780.290,27.344,24.414,31.250,19.531,27.344
1584546780.294,36.621,24.414,34.180,17.578,1.953
1584546780.298,20.508,26.367,35.156,37.598,-25.391
1584546780.302,9.766,27.344,32.227,47.852,15.137
1584546780.306,25.879,28.320,32.227,36.133,25.391
1584546780.310,40.527,26.855,32.227,23.438,64.453
1584546780.313,29.785,26.367,27.832,38.574,31.250
1584546780.317,13.672,27.832,24.414,52.734,-29.297
1584546780.321,16.602,26.367,25.879,33.691,28.809
1584546780.325,36.621,23.926,26.367,20.996,8.301
1584546780.329,39.062,25.879,27.832,42.969,-5.859
1584546780.333,18.555,28.809,26.367,58.594,23.926
1584546780.337,14.648,29.785,23.438,41.016,-24.902
1584546780.341,33.691,31.738,26.367,17.578,5.859
1584546780.345,40.527,32.715,30.762,24.414,56.152
1584546780.349,22.461,32.227,33.203,49.805,18.066
1584546780.353,7.324,30.762,29.785,52.246,34.668
1584546780.356,21.484,27.344,25.879,27.344,20.020
1584546780.360,40.039,26.367,20.508,19.531,-20.508
1584546780.364,26.855,28.320,18.066,45.410,-8.301
1584546780.368,8.301,27.832,25.391,54.688,-24.414
1584546780.372,18.555,28.320,27.832,32.227,40.527
1584546780.376,34.180,26.855,29.785,17.578,90.332
1584546780.380,33.691,25.879,34.180,29.785,34.668
1584546780.384,19.043,27.832,34.668,51.270,58.594
1584546780.388,19.531,25.879,30.762,39.551,67.383
1584546780.392,36.133,29.297,29.785,22.949,34.668
1584546780.395,41.016,31.738,33.691,32.227,41.504
1584546780.399,21.973,25.391,32.715,46.387,29.785
1584546780.403,13.672,23.438,25.879,41.016,-9.277
1584546780.407,31.738,24.414,19.043,22.461,1.465
1584546780.411,38.086,27.832,22.461,23.438,49.805
1584546780.415,23.438,29.785,32.227,50.781,65.430
1584546780.419,13.672,26.367,37.109,51.270,25.879
1584546780.423,21.484,23.926,34.668,21.973,-5.371
1584546780.427,33.203,25.879,31.738,20.996,1.953
1584546780.431,23.438,25.879,30.273,38.574,37.598
1584546780.435,8.789,25.391,26.855,45.898,73.242
1584546780.438,22.949,29.297,25.391,33.691,125.488
1584546780.442,41.016,29.785,26.855,18.066,31.250
1584546780.446,29.297,26.367,24.414,31.250,18.555
1584546780.450,10.254,27.344,20.996,52.246,66.406
1584546780.454,15.137,30.762,25.879,40.039,39.551
1584546780.458,33.691,30.273,33.203,17.090,13.672
1584546780.462,40.039,29.297,31.250,30.273,16.602
1584546780.466,17.578,28.320,22.949,47.363,27.832
1584546780.470,3.906,28.320,23.438,41.016,-12.695
1584546780.474,25.391,28.809,31.250,23.926,-20.020
1584546780.478,38.574,28.809,32.227,25.391,18.066
1584546780.481,26.367,33.203,29.785,47.363,40.039
1584546780.485,17.578,36.133,30.273,53.711,31.738
1584546780.489,26.855,30.273,33.203,32.227,-12.207
1584546780.493,34.668,23.438,28.320,16.602,19.043
1584546780.497,23.438,23.926,23.926,37.109,35.156
1584546780.501,8.301,28.320,24.902,49.805,9.277
1584546780.505,18.555,32.227,27.832,29.785,26.367
1584546780.509,39.551,28.809,30.273,20.020,36.621
1584546780.513,32.227,22.461,26.367,25.879,9.766
1584546780.517,10.742,24.902,24.902,41.992,15.625
1584546780.520,10.742,31.738,26.855,42.969,-38.574
1584546780.524,28.809,29.297,26.367,25.879,-71.777
1584546780.528,33.691,25.391,29.785,30.762,1.465
1584546780.532,17.090,28.320,32.715,47.852,12.695
1584546780.536,6.836,29.297,28.320,44.922,27.832
1584546780.540,19.531,22.461,24.902,21.973,80.566
1584546780.544,31.738,20.508,26.855,15.625,63.477
1584546780.548,19.043,27.344,35.156,35.645,9.277
1584546780.552,6.348,25.879,34.668,43.945,5.371
1584546780.556,11.719,20.996,27.344,24.902,-7.812
1584546780.560,25.391,21.973,28.320,14.648,22.461
1584546780.563,18.555,22.949,30.273,24.902,43.945
1584546780.567,0.977,23.438,32.715,39.062,7.812
1584546780.571,4.883,23.438,29.785,25.391,27.344
1584546780.575,20.996,21.484,24.414,5.859,41.504
1584546780.579,25.391,22.461,26.855,23.926,-22.461
1584546780.583,11.230,25.879,29.297,52.246,14.160
1584546780.587,4.883,26.367,28.809,47.852,68.848
1584546780.591,24.414,25.879,28.809,18.066,-3.906
1584546780.595,32.715,27.344,29.297,17.578,-15.137
1584546780.599,12.207,26.367,28.809,40.527,19.043
1584546780.603,3.418,21.973,27.344,41.992,53.223
1584546780.606,16.602,17.578,21.973,19.043,46.875
1584546780.610,27.832,19.043,20.020,5.859,-0.977
1584546780.614,20.020,27.344,24.414,24.902,-13.184
1584546780.618,6.348,30.273,27.832,41.016,1.465
1584546780.622,17.090,27.832,24.902,23.926,33.203
1584546780.626,40.039,26.855,23.438,12.695,17.090
1584546780.630,41.016,31.250,36.133,36.133,-1.465
1584546780.634,22.949,35.156,40.527,59.570,-6.836
1584546780.638,14.648,26.855,29.785,41.016,28.320
1584546780.642,32.227,24.902,27.344,17.578,43.457
1584546780.645,43.945,30.762,33.691,27.832,16.113
1584546780.649,22.461,28.320,30.762,46.875,57.129
1584546780.653,8.789,25.391,27.344,40.527,56.152
1584546780.657,31.250,27.832,34.668,20.508,-22.949
1584546780.661,43.457,27.832,32.227,18.066,-54.199
1584546780.665,23.926,27.832,25.391,31.738,-32.227
1584546780.669,10.254,28.809,29.297,41.016,0.488
1584546780.673,22.949,25.391,30.762,24.414,38.574
1584546780.677,37.109,25.879,29.297,16.602,14.648
1584546780.681,22.949,27.344,28.320,38.574,-16.602
1584546780.685,5.371,28.809,25.391,46.387,-8.789
1584546780.688,12.695,29.297,26.367,23.438,16.113
1584546780.692,32.227,28.320,28.320,10.742,69.336
1584546780.696,31.250,24.414,23.438,29.785,53.711
1584546780.700,15.137,25.391,24.414,51.270,-1.465
1584546780.704,11.230,30.273,25.391,39.062,8.301
1584546780.708,25.391,28.320,20.996,9.277,1.953
1584546780.712,34.180,27.344,26.367,20.508,11.719
1584546780.716,17.578,29.785,27.832,55.664,61.523
1584546780.720,7.324,33.203,26.855,51.270,15.625
1584546780.724,28.320,32.715,31.250,22.461,6.348
1584546780.728,39.062,24.902,31.250,18.555,96.191
1584546780.731,18.555,24.414,31.250,38.086,100.098
1584546780.735,10.742,26.367,33.203,40.039,65.918
1584546780.739,21.973,23.438,30.273,18.066,32.227
1584546780.743,33.203,24.902,25.879,17.578,31.250
1584546780.747,26.367,25.879,25.391,34.668,41.504
1584546780.751,8.301,25.391,30.273,42.969,8.789
1584546780.755,14.160,26.855,32.715,29.785,3.418
1584546780.759,30.762,24.902,32.227,11.719,-2.930
1584546780.763,27.344,23.438,27.832,23.926,14.648
1584546780.767,12.207,26.367,21.484,41.992,28.809
1584546780.770,12.695,29.785,25.391,37.598,20.508
1584546780.774,29.785,28.320,27.344,16.602,-3.906
1584546780.778,36.133,25.879,24.414,20.020,-16.113
1584546780.782,19.531,25.391,29.297,40.527,78.125
1584546780.786,9.277,25.391,30.762,37.109,74.219
1584546780.790,28.320,24.414,24.414,17.090,-22.949
1584546780.794,40.039,23.926,27.832,22.461,-17.578
1584546780.798,22.461,25.391,28.809,39.551,20.996
1584546780.802,10.742,28.320,26.855,41.504,9.277
1584546780.806,20.996,30.762,34.180,30.273,-35.156
1584546780.810,32.227,28.809,35.156,19.531,-11.719
1584546780.813,26.367,25.879,30.762,29.297,21.484
1584546780.817,10.254,25.391,29.297,41.504,55.176
1584546780.821,12.695,25.391,28.320,32.227,64.453
1584546780.825,31.250,25.391,31.250,22.461,11.230
1584546780.829,31.250,29.785,30.273,28.809,37.598
1584546780.833,11.719,32.227,27.344,44.922,65.430
1584546780.837,9.277,30.273,27.344,42.969,14.648
1584546780.841,27.344,27.832,29.297,21.484,45.410
1584546780.845,38.086,31.250,31.738,19.531,69.336
1584546780.849,20.508,35.645,32.227,39.062,52.734
1584546780.853,4.883,32.227,33.203,46.875,13.672
1584546780.856,16.602,26.367,31.250,27.344,44.434
1584546780.860,27.832,24.902,25.879,20.020,63.477
1584546780.864,19.531,28.320,27.832,37.109,33.203
1584546780.868,6.836,29.297,29.785,48.828,24.414
1584546780.872,13.672,24.414,24.414,31.250,43.945
1584546780.876,34.668,23.438,29.785,21.973,41.016
1584546780.880,33.691,22.949,36.621,39.062,18.555
1584546780.884,11.230,21.484,29.297,45.410,23.926
1584546780.888,12.207,27.344,27.344,31.738,39.551
1584546780.892,30.762,27.832,30.273,19.531,29.785
1584546780.895,31.738,24.902,28.809,25.879,0.977
1584546780.899,14.160,24.414,30.273,46.875,11.719
1584546780.903,9.766,24.902,28.320,45.410,35.156
1584546780.907,29.785,25.391,31.738,25.879,-7.324
1584546780.911,37.109,24.902,35.156,24.902,-61.523
1584546780.915,17.090,24.414,31.738,42.480,-12.207
1584546780.919,5.859,24.414,31.738,46.875,80.078
1584546780.923,20.996,21.973,32.227,29.785,29.785
1584546780.927,30.273,21.484,26.855,22.949,-3.906
1584546780.931,27.344,25.391,29.297,48.828,-38.574
1584546780.935,16.602,25.391,33.203,61.035,-12.695
1584546780.938,19.043,19.531,29.785,38.086,85.449
1584546780.942,40.039,21.484,32.227,28.320,13.672
1584546780.946,39.551,24.414,34.668,43.945,-3.906
1584546780.950,23.438,22.461,29.785,51.758,0.000
1584546780.954,20.996,27.344,24.902,37.109,-2.930
1584546780.958,33.691,29.785,31.738,25.391,9.277
1584546780.962,34.180,27.344,36.621,31.250,-14.160
1584546780.966,14.648,29.785,30.762,44.922,-31.738
1584546780.970,6.348,28.320,26.855,39.551,27.832
1584546780.974,27.344,24.902,29.297,18.066,71.289
1584546780.978,37.598,22.461,30.273,17.090,26.855
1584546780.981,21.484,25.879,33.203,40.527,9.277
1584546780.985,7.324,27.344,34.180,51.270,37.109
1584546780.989,21.484,24.902,30.273,33.203,15.137
1584546780.993,41.504,28.320,27.832,17.578,12.207
1584546780.997,28.320,31.250,25.879,30.273,23.926
1584546781.001,11.230,32.715,26.367,49.805,53.711
1584546781.005,17.578,32.715,28.320,35.645,66.406
1584546781.009,30.273,27.344,28.320,12.207,50.293
1584546781.013,32.227,24.902,34.180,22.461,31.250
1584546781.017,14.160,25.391,38.086,45.410,19.531
1584546781.020,8.789,25.391,33.203,35.156,30.273
1584546781.024,29.297,25.879,29.297,16.602,-31.738
1584546781.028,31.738,21.973,26.367,24.414,-60.059
1584546781.032,12.695,22.949,27.832,42.969,-36.133
1584546781.036,5.859,26.855,31.250,43.945,-6.836
1584546781.040,20.508,22.949,30.762,13.184,19.043
1584546781.044,31.738,22.949,30.762,12.695,41.992
1584546781.048,20.996,26.367,37.109,43.457,72.754
1584546781.052,6.836,27.344,38.086,51.758,107.422
1584546781.056,18.066,20.020,31.250,32.227,74.707
1584546781.060,35.156,18.555,31.250,22.461,35.645
1584546781.063,29.785,25.879,35.156,40.039,5.859
1584546781.067,15.625,29.297,29.297,57.617,0.977
1584546781.071,18.066,27.832,27.832,42.969,36.133
1584546781.075,38.086,24.902,32.715,16.602,-6.348
1584546781.079,35.645,23.926,30.273,29.297,10.742
1584546781.083,15.625,23.926,27.832,49.316,15.625
1584546781.087,13.672,20.996,24.902,37.109,13.184
1584546781.091,32.227,20.996,28.809,24.414,51.270
1584546781.095,41.992,25.391,28.809,34.180,32.715
1584546781.099,27.832,26.855,21.484,52.734,38.086
1584546781.103,17.090,24.414,25.879,51.758,80.078
1584546781.106,28.320,25.391,25.391,26.367,102.539
1584546781.110,43.945,30.762,24.902,23.926,64.453
1584546781.114,33.203,32.227,30.762,43.457,35.156
1584546781.118,10.254,27.832,25.391,46.875,72.266
1584546781.122,19.043,23.438,21.484,27.832,84.473
1584546781.126,47.852,26.855,25.879,18.555,63.965
1584546781.130,43.945,29.785,24.414,36.133,22.461
1584546781.134,20.996,32.227,25.879,53.711,1.465
1584546781.138,20.508,33.691,30.273,44.922,30.273
1584546781.142,33.203,28.809,24.902,20.020,0.977
1584546781.145,36.621,27.832,25.879,28.320,-20.020
1584546781.149,21.973,30.762,26.855,49.316,23.438
1584546781.153,12.207,30.762,24.414,40.527,41.992
1584546781.157,29.297,28.320,24.414,12.695,6.348
1584546781.161,41.992,29.297,25.391,12.207,17.578
1584546781.165,27.344,35.156,24.414,35.645,67.871
1584546781.169,16.602,35.156,23.926,41.992,81.055
1584546781.173,31.250,30.273,24.902,22.949,62.988
1584546781.177,44.434,30.762,25.879,11.230,52.246
1584546781.181,31.738,33.691,30.762,38.086,2.441
1584546781.185,11.719,32.227,31.250,54.199,4.883
1584546781.188,14.160,25.879,24.414,32.227,33.691
1584546781.192,30.273,24.414,23.926,17.090,-9.766
1584546781.196,26.855,29.785,23.438,31.250,81.543
1584546781.200,5.859,30.273,22.461,45.898,66.406
1584546781.204,8.789,30.762,31.738,38.086,-10.254
1584546781.208,30.762,29.785,32.715,15.625,30.762
1584546781.212,28.320,22.461,23.926,10.254,3.906
1584546781.216,8.789,19.043,27.344,31.250,-8.301
1584546781.220,3.906,21.973,28.809,28.320,17.578
1584546781.224,23.438,25.879,27.832,2.930,-8.789
1584546781.228,35.156,30.762,30.273,7.812,28.809
1584546781.231,15.625,28.809,27.832,29.297,31.738
1584546781.235,-0.977,22.949,26.855,32.227,38.086
1584546781.239,13.184,24.414,29.297,13.184,49.805
1584546781.243,31.250,26.855,32.715,12.207,40.039
1584546781.247,24.902,26.855,29.785,30.762,55.176
1584546781.251,3.906,23.438,26.367,32.227,23.438
1584546781.255,5.371,21.973,31.250,14.160,-4.395
1584546781.259,29.297,24.414,35.645,4.395,-8.301
1584546781.263,27.832,21.973,30.273,10.742,-14.648
1584546781.267,11.230,24.414,25.879,24.414,-28.320
1584546781.270,12.207,30.762,29.785,20.508,11.230
1584546781.274,28.320,27.344,29.785,-6.836,43.945
1584546781.278,33.203,24.902,25.391,-5.859,24.902
1584546781.282,14.648,30.762,22.949,17.090,29.297
1584546781.286,9.766,29.297,23.438,21.484,56.641
1584546781.290,25.879,20.996,26.367,8.301,20.020
1584546781.294,39.062,21.484,32.227,7.324,21.973
1584546781.298,27.344,27.344,32.227,22.461,46.387
1584546781.302,7.324,30.762,25.391,27.832,11.719
1584546781.306,25.879,36.133,32.715,20.996,13.184
1584546781.310,45.410,34.668,33.691,12.207,-25.879
1584546781.313,30.762,25.391,25.879,13.672,0.000
1584546781.317,14.160,24.902,28.320,31.738,71.777
1584546781.321,16.113,23.438,23.926,26.367,47.363
1584546781.325,33.203,22.949,22.949,7.324,61.523
1584546781.329,36.133,24.902,28.320,12.695,37.598
1584546781.333,14.648,25.391,31.250,33.691,-9.277
1584546781.337,8.301,25.391,28.809,34.668,14.648
1584546781.341,33.203,28.809,26.855,17.578,29.785
1584546781.345,37.109,26.367,28.320,16.602,32.715
1584546781.349,12.695,24.414,27.832,34.180,38.086
1584546781.353,5.859,28.320,28.320,35.156,30.273
1584546781.356,20.020,27.344,24.902,10.742,39.062
1584546781.360,34.668,24.902,23.926,15.137,61.035
1584546781.364,28.320,24.902,28.809,39.551,25.879
1584546781.368,19.531,27.832,34.668,44.434,48.340
1584546781.372,24.902,27.344,34.668,21.973,49.316
1584546781.376,26.367,23.926,31.738,2.930,10.254
1584546781.380,17.090,21.973,31.250,18.066,13.672
1584546781.384,1.465,20.020,28.809,37.109,-4.883
1584546781.388,3.906,21.484,22.461,22.949,-1.465
1584546781.392,26.367,24.902,20.020,8.789,24.414
1584546781.395,30.762,20.508,26.367,23.926,53.711
1584546781.399,17.090,21.484,28.809,43.945,44.434
1584546781.403,12.207,26.855,27.344,36.621,42.480
1584546781.407,26.855,23.926,27.832,14.160,12.695
1584546781.411,46.387,26.855,36.133,22.949,32.715
1584546781.415,35.156,29.297,38.086,41.504,78.613
1584546781.419,12.695,27.832,30.762,41.016,62.012
1584546781.423,24.414,24.414,25.879,23.926,38.574
1584546781.427,37.109,20.996,20.508,17.578,-41.992
1584546781.431,27.832,27.344,18.555,37.598,-34.180
1584546781.435,18.066,29.785,23.438,51.758,-6.836
1584546781.438,20.996,24.414,29.785,36.133,41.992
1584546781.442,35.645,22.461,31.250,21.973,39.551
1584546781.446,32.715,24.414,33.691,37.109,35.156
1584546781.450,18.555,25.879,35.645,58.594,38.086
1584546781.454,18.555,27.832,33.691,44.922,19.043
1584546781.458,34.180,28.320,28.320,21.973,18.066
1584546781.462,38.086,28.320,22.461,27.832,39.062
1584546781.466,21.484,29.785,28.320,53.223,48.340
1584546781.470,15.625,31.250,31.250,54.199,24.414
1584546781.474,35.156,34.180,33.203,36.621,37.109
1584546781.478,47.363,33.691,34.668,32.227,41.016
1584546781.481,26.367,26.855,29.297,44.434,27.832
1584546781.485,7.812,27.832,21.973,50.293,61.035
1584546781.489,24.902,28.809,19.531,29.785,76.172
1584546781.493,40.039,25.391,26.367,21.484,42.969
1584546781.497,24.902,27.832,29.785,38.574,47.852
1584546781.501,12.207,32.227,26.855,53.223,34.668
1584546781.505,15.137,31.250,24.414,24.414,61.523
1584546781.509,33.203,28.809,29.297,6.836,36.621
1584546781.513,32.227,26.855,30.762,29.785,0.977
1584546781.517,12.695,27.344,26.367,51.270,22.949
1584546781.520,11.719,24.902,24.902,53.223,4.395
1584546781.524,30.762,27.832,24.902,26.855,23.438
1584546781.528,36.621,30.273,23.926,19.531,21.973
1584546781.532,17.090,25.391,30.273,41.016,-20.508
1584546781.536,11.230,30.273,36.621,41.504,-14.160
1584546781.540,33.691,36.621,36.133,24.902,1.953
1584546781.544,41.992,31.250,33.691,25.879,26.367
1584546781.548,26.367,25.391,31.738,44.434,52.246
1584546781.552,12.207,27.344,27.832,53.223,33.691
1584546781.556,22.461,28.809,25.391,33.691,16.113
1584546781.560,38.086,27.344,22.461,20.996,69.336
1584546781.563,32.715,27.344,20.508,35.156,62.500
1584546781.567,14.160,27.832,26.367,50.293,26.367
1584546781.571,16.113,27.344,34.668,39.551,61.035
1584546781.575,42.480,27.344,36.133,26.367,32.715
1584546781.579,39.551,29.297,29.785,35.645,41.504
1584546781.583,14.648,27.832,31.250,50.293,66.895
1584546781.587,15.137,25.391,35.645,42.480,35.156
1584546781.591,34.180,27.832,28.809,21.973,75.195
1584546781.595,44.922,30.273,27.832,20.508,33.203
1584546781.599,24.414,32.715,26.367,39.062,1.953
1584546781.603,8.789,32.227,22.461,44.922,27.832
1584546781.606,26.367,29.297,30.762,26.367,1.953
1584546781.610,40.527,29.785,32.227,24.414,-21.484
1584546781.614,33.203,29.297,33.203,46.875,-34.180
1584546781.618,16.602,25.879,37.598,52.734,2.441
1584546781.622,23.438,26.367,37.598,28.320,15.625
1584546781.626,46.387,29.785,35.645,22.461,32.227
1584546781.630,39.551,29.297,30.762,39.062,37.109
1584546781.634,15.137,25.391,25.879,46.387,21.973
1584546781.638,17.090,25.879,25.391,33.203,6.836
1584546781.642,39.062,30.273,33.691,21.973,1.953
1584546781.645,42.480,30.273,37.598,28.809,-10.742
1584546781.649,14.648,27.344,29.297,41.016,2.441
1584546781.653,1.465,22.461,26.855,33.203,32.715
1584546781.657,20.508,20.508,28.809,11.230,28.809
1584546781.661,32.227,20.020,28.320,15.137,25.391
1584546781.665,20.996,22.461,24.902,44.922,36.133
1584546781.669,13.184,28.809,27.344,55.176,12.207
1584546781.673,27.832,31.738,25.391,29.297,-15.137
1584546781.677,41.016,30.762,20.996,20.020,-46.875
1584546781.681,28.320,29.785,25.391,43.945,3.906
1584546781.685,13.184,26.855,30.762,51.758,29.297
1584546781.688,23.926,25.879,28.809,30.273,-4.883
1584546781.692,47.363,36.133,30.762,24.902,30.273
1584546781.696,46.387,39.062,36.133,44.922,35.156
1584546781.700,19.043,30.762,36.621,50.781,38.574
1584546781.704,7.324,26.367,32.227,36.133,105.469
1584546781.708,21.484,22.949,24.414,20.996,39.551
1584546781.712,33.691,19.531,19.043,23.438,-20.996
1584546781.716,22.461,22.461,21.973,41.992,-56.641
1584546781.720,13.184,25.391,30.273,42.969,-36.621
1584546781.724,27.832,25.391,29.297,23.926,-0.488
1584546781.728,40.039,24.902,26.855,21.484,39.551
1584546781.731,27.344,27.832,31.738,44.434,88.867
1584546781.735,14.160,25.879,33.691,51.270,50.781
1584546781.739,29.297,25.391,31.250,34.668,-8.301
1584546781.743,43.457,29.785,31.250,24.902,18.066
1584546781.747,28.809,28.809,29.297,30.762,60.547
1584546781.751,8.789,28.320,26.367,46.875,11.719
1584546781.755,12.207,27.832,25.391,36.133,1.953
1584546781.759,34.180,25.879,29.785,20.508,49.316
1584546781.763,36.133,25.391,32.715,33.691,28.809
1584546781.767,14.648,26.367,30.273,48.828,50.293
1584546781.770,7.812,27.832,30.762,41.504,62.500
1584546781.774,25.391,31.250,28.320,20.996,40.039
1584546781.778,37.598,35.156,31.738,28.320,53.223
1584546781.782,17.578,33.691,34.668,50.293,6.836
1584546781.786,8.301,29.297,27.832,42.480,2.930
1584546781.790,32.227,30.762,18.555,19.043,32.227
1584546781.794,40.039,27.832,13.184,17.090,45.410
1584546781.798,17.578,24.414,24.902,32.715,67.383
1584546781.802,3.418,27.344,38.574,43.457,26.855
1584546781.806,14.648,24.902,34.180,27.344,21.484
1584546781.810,27.344,20.996,27.344,15.625,43.457
1584546781.813,25.391,26.855,30.762,32.227,53.711
1584546781.817,14.160,33.203,32.715,48.828,23.438
1584546781.821,20.508,33.203,24.414,36.621,-7.812
1584546781.825,43.457,28.809,15.625,20.996,-23.926
