timestamps,TP9,AF7,AF8,TP10,Right AUX
1584600542.157,34.180,25.391,30.273,68.359,72.266
1584600542.161,3.906,14.648,26.367,-121.094,47.363
1584600542.165,13.184,23.438,23.926,-45.410,37.598
1584600542.169,41.016,32.227,23.926,151.855,48.828
1584600542.173,27.832,25.879,26.367,108.398,66.406
1584600542.177,-14.648,17.578,24.902,-101.074,62.988
1584600542.181,-9.277,21.973,28.320,-95.215,5.859
1584600542.185,46.387,37.109,35.645,130.859,45.410
1584600542.188,51.758,33.691,37.109,166.504,18.066
1584600542.192,5.371,16.113,25.391,-45.410,9.277
1584600542.196,-9.277,17.578,17.578,-125.000,47.852
1584600542.200,32.715,28.320,24.902,69.824,1.465
1584600542.204,49.316,30.273,28.809,191.895,14.648
1584600542.208,13.672,21.973,22.461,19.531,-6.836
1584600542.212,-12.695,18.555,20.996,-148.926,-49.805
1584600542.216,22.461,31.250,27.344,-0.488,-15.137
1584600542.220,53.223,34.180,29.297,178.711,6.836
1584600542.224,25.391,25.391,24.902,76.172,41.016
1584600542.227,-9.277,22.461,24.902,-125.977,88.867
1584600542.231,10.254,28.320,32.715,-52.734,81.055
1584600542.235,51.270,29.297,33.203,166.504,74.219
1584600542.239,42.969,26.855,29.297,137.207,67.871
1584600542.243,-1.953,23.926,23.438,-87.891,39.062
1584600542.247,-8.789,24.902,26.855,-112.305,13.672
1584600542.251,21.973,29.297,35.645,106.445,29.297
1584600542.255,30.273,26.855,34.180,157.715,35.156
1584600542.259,-3.418,20.996,29.785,-40.527,-3.418
1584600542.263,-16.113,18.555,33.203,-135.742,-17.090
1584600542.267,15.625,22.461,39.551,40.527,-2.441
1584600542.270,29.785,24.902,37.598,170.410,12.695
1584600542.274,6.348,20.508,29.297,19.043,19.043
1584600542.278,-22.461,18.066,23.926,-147.949,20.020
1584600542.282,8.301,23.438,28.320,-15.137,9.277
1584600542.286,41.504,25.391,29.297,167.480,4.395
1584600542.290,23.438,20.996,27.344,83.008,45.410
1584600542.294,-6.836,14.648,22.949,-120.605,70.801
1584600542.298,4.883,20.996,22.949,-73.242,35.645
1584600542.302,40.527,33.203,28.809,149.414,23.438
1584600542.306,36.621,28.809,25.391,144.531,-0.977
1584600542.310,-9.766,15.137,22.949,-72.266,20.996
1584600542.313,-16.113,15.137,24.902,-110.352,98.145
1584600542.317,31.738,26.855,24.902,103.516,57.617
1584600542.321,47.852,31.738,21.973,174.805,50.781
1584600542.325,16.113,25.391,20.020,-20.996,2.441
1584600542.329,-3.906,22.949,23.438,-137.207,-9.277
1584600542.333,22.461,28.809,31.250,31.250,40.039
1584600542.337,42.969,29.785,35.645,178.223,53.223
1584600542.341,20.508,18.555,34.180,51.758,38.086
1584600542.345,-1.465,17.090,34.180,-118.652,-4.395
1584600542.349,13.672,30.762,36.621,-15.625,-20.020
1584600542.352,34.180,34.668,34.668,166.992,-7.324
1584600542.356,25.391,30.273,27.832,102.051,22.461
1584600542.360,-16.113,21.484,28.809,-109.375,-12.207
1584600542.364,-15.137,19.043,41.992,-82.520,-33.691
1584600542.368,31.738,28.809,42.480,130.859,23.926
1584600542.372,36.133,31.738,31.250,138.184,31.738
1584600542.376,-2.930,21.973,29.297,-76.172,15.625
1584600542.380,-23.926,17.578,33.203,-136.719,-5.371
1584600542.384,8.301,22.949,38.086,72.754,2.930
1584600542.388,33.691,21.973,41.016,172.852,39.062
1584600542.392,6.348,18.066,36.133,-3.418,31.738
1584600542.395,-14.648,20.020,30.273,-138.672,44.434
1584600542.399,11.230,26.367,33.203,15.137,47.852
1584600542.403,29.785,25.879,37.109,172.363,58.105
1584600542.407,12.207,20.996,36.133,58.105,62.012
1584600542.411,-15.625,13.672,31.250,-127.930,74.707
1584600542.415,5.371,19.043,29.785,-35.645,46.387
1584600542.419,37.598,27.832,27.344,159.180,-17.090
1584600542.423,26.855,26.367,20.996,88.379,2.930
1584600542.427,-1.465,21.973,21.484,-121.582,41.016
1584600542.431,5.859,22.461,25.391,-93.262,14.648
1584600542.435,43.945,24.902,27.832,135.254,-6.348
1584600542.438,46.875,26.367,25.879,161.133,19.531
1584600542.442,-0.488,23.926,19.531,-59.570,12.695
1584600542.446,-21.973,23.926,18.066,-139.160,15.625
1584600542.450,24.902,34.180,21.484,65.430,34.180
1584600542.454,59.570,40.527,21.973,181.641,8.789
1584600542.458,27.832,33.691,18.066,16.602,-18.555
1584600542.462,-9.766,26.367,15.625,-137.695,11.719
1584600542.466,14.648,27.344,21.973,2.930,73.242
1584600542.470,41.992,32.715,23.926,175.293,82.031
1584600542.474,22.949,29.785,22.461,71.777,18.066
1584600542.477,-10.254,20.996,19.531,-113.770,25.391
1584600542.481,14.648,24.414,24.902,-41.016,76.172
1584600542.485,59.082,30.762,32.227,159.180,18.066
1584600542.489,42.480,28.809,30.762,123.535,8.789
1584600542.493,-13.672,22.461,23.926,-98.145,10.742
1584600542.497,-19.531,25.391,18.555,-110.352,-14.648
1584600542.501,25.391,33.691,20.020,115.723,3.418
1584600542.505,33.691,29.785,20.996,168.457,19.043
1584600542.509,0.488,18.066,20.508,-33.691,12.695
1584600542.513,-8.789,18.555,24.414,-129.883,30.762
1584600542.517,26.855,30.273,28.320,55.176,-9.277
1584600542.520,39.551,27.344,26.367,177.246,-62.500
1584600542.524,8.301,20.508,22.461,24.414,29.785
1584600542.528,-19.043,19.531,20.996,-138.184,74.219
1584600542.532,12.695,27.832,26.367,-5.859,26.855
1584600542.536,47.363,33.203,31.738,175.293,5.859
1584600542.540,19.043,22.461,27.344,86.914,26.855
1584600542.544,-21.484,13.184,22.949,-114.258,80.078
1584600542.548,-1.953,18.066,21.973,-71.289,60.059
1584600542.552,45.410,27.344,20.020,145.020,-1.465
1584600542.556,45.410,27.344,18.555,128.418,17.578
1584600542.560,4.395,22.461,16.113,-95.703,36.621
1584600542.563,-9.766,27.344,15.625,-122.559,34.668
1584600542.567,18.066,36.133,23.926,98.145,72.266
1584600542.571,29.297,29.297,25.879,169.434,85.938
1584600542.575,-2.441,15.625,23.438,-21.484,39.062
1584600542.579,-8.789,17.578,21.973,-129.395,28.809
1584600542.583,29.785,28.809,20.508,46.387,34.180
1584600542.587,46.387,32.715,17.578,178.711,23.926
1584600542.591,18.555,29.785,12.207,32.715,95.703
1584600542.595,-8.301,24.902,13.672,-129.395,83.496
1584600542.599,24.414,28.809,22.949,-10.254,27.344
1584600542.602,43.945,35.645,30.762,171.387,35.156
1584600542.606,12.695,30.273,27.344,87.891,-37.109
1584600542.610,-19.043,17.578,22.949,-120.117,-25.391
1584600542.614,2.930,20.020,30.762,-71.289,31.250
1584600542.618,47.852,29.785,33.691,150.391,33.203
1584600542.622,35.156,31.250,25.879,143.555,11.230
1584600542.626,-7.812,21.484,22.949,-72.754,-3.906
1584600542.630,-14.160,19.043,22.461,-122.070,43.457
1584600542.634,21.973,27.344,27.344,85.938,43.945
1584600542.638,33.203,26.367,28.809,170.410,13.184
1584600542.642,-2.441,20.020,22.949,-19.043,2.930
1584600542.645,-22.949,16.113,25.879,-144.531,41.016
1584600542.649,18.066,23.438,34.180,31.738,59.570
1584600542.653,48.828,29.297,35.156,179.199,35.156
1584600542.657,14.648,25.391,26.855,39.551,7.812
1584600542.661,-22.461,20.020,20.020,-149.902,8.301
1584600542.665,9.766,27.344,26.855,-40.527,52.246
1584600542.669,55.176,32.227,38.086,191.895,40.527
1584600542.673,39.062,26.855,31.250,126.953,44.434
1584600542.677,-14.160,19.043,19.043,-112.305,59.082
1584600542.681,-8.789,24.902,20.020,-101.074,15.137
1584600542.685,44.922,37.598,22.461,124.023,28.320
1584600542.688,54.688,35.156,22.461,157.715,35.156
1584600542.692,11.719,18.555,29.297,-43.945,-0.977
1584600542.696,-8.301,13.672,30.762,-119.141,-14.648
1584600542.700,28.320,24.902,27.344,73.730,4.883
1584600542.704,43.945,27.344,23.926,175.293,99.121
1584600542.708,17.090,23.926,20.508,2.441,84.473
1584600542.712,-2.441,22.949,21.973,-131.836,35.645
1584600542.716,22.949,26.367,25.391,20.996,18.555
1584600542.720,49.805,30.762,26.855,186.035,-10.254
1584600542.724,29.785,28.809,21.484,77.148,21.484
1584600542.727,-0.977,22.949,18.555,-113.281,15.137
1584600542.731,21.484,22.461,26.367,-36.621,2.930
1584600542.735,54.199,25.391,31.738,158.691,-2.441
1584600542.739,41.992,22.949,23.438,115.234,-6.348
1584600542.743,8.789,21.973,17.578,-94.238,32.227
1584600542.747,14.160,29.297,20.508,-93.750,29.297
1584600542.751,47.363,33.203,25.391,125.000,20.508
1584600542.755,42.480,31.250,24.414,165.039,22.949
1584600542.759,2.930,22.949,17.578,-37.109,40.527
1584600542.763,-10.742,21.973,14.648,-126.953,44.922
1584600542.767,35.156,31.738,23.438,63.965,5.371
1584600542.770,55.176,35.156,28.320,184.570,21.484
1584600542.774,12.207,25.391,24.414,23.926,17.090
1584600542.778,-13.184,20.020,20.508,-140.137,20.508
1584600542.782,15.137,26.855,24.414,-4.395,16.602
1584600542.786,48.828,32.715,28.809,176.758,14.648
1584600542.790,25.879,26.855,27.832,80.078,38.086
1584600542.794,-12.695,20.020,25.879,-115.723,43.457
1584600542.798,2.441,25.391,24.902,-64.941,27.832
1584600542.802,44.922,32.227,29.785,144.531,59.082
1584600542.806,41.992,30.273,24.902,132.324,65.430
1584600542.810,1.953,22.949,16.602,-83.984,1.465
1584600542.813,5.859,27.344,19.043,-110.352,6.836
1584600542.817,41.504,37.109,26.855,111.328,45.410
1584600542.821,47.363,36.621,25.879,169.922,21.973
1584600542.825,13.672,25.391,21.973,-34.180,4.395
1584600542.829,-6.836,22.949,24.414,-131.348,5.859
1584600542.833,24.414,34.668,24.902,54.199,42.480
1584600542.837,46.387,34.180,29.297,189.453,53.223
1584600542.841,19.531,25.879,27.344,37.109,25.879
1584600542.845,-8.789,26.855,22.949,-141.602,17.578
1584600542.849,15.137,32.715,29.785,-11.230,49.316
1584600542.852,54.199,29.785,31.738,182.617,7.812
1584600542.856,40.039,23.438,22.949,88.379,30.273
1584600542.860,-2.441,19.043,20.508,-118.652,77.637
1584600542.864,6.348,22.461,22.461,-77.148,63.965
1584600542.868,40.527,32.715,24.414,135.742,54.688
1584600542.872,30.762,36.133,23.926,137.207,61.523
1584600542.876,-5.371,28.320,18.555,-74.707,77.148
1584600542.880,0.000,24.414,20.508,-113.281,19.531
1584600542.884,42.480,30.273,29.297,99.609,19.043
1584600542.888,54.199,31.738,32.715,176.758,82.031
1584600542.892,13.672,21.484,28.320,-18.066,75.684
1584600542.895,-14.160,15.625,27.344,-141.602,53.711
1584600542.899,33.691,24.414,33.203,38.086,11.230
1584600542.903,71.777,30.762,36.621,194.336,43.457
1584600542.907,37.109,24.414,32.227,59.570,5.371
1584600542.911,-20.996,17.090,21.973,-140.625,-51.270
1584600542.915,-1.953,29.785,20.020,-36.133,-32.227
1584600542.919,51.758,38.086,28.809,174.805,-40.039
1584600542.923,41.016,26.855,25.879,114.258,-46.387
1584600542.927,-7.812,17.578,21.973,-98.633,-23.438
1584600542.931,-13.184,24.414,26.367,-88.379,-1.465
1584600542.935,31.738,39.551,30.273,127.441,21.484
1584600542.938,44.922,39.551,22.949,156.738,57.129
1584600542.942,7.812,25.391,17.578,-54.688,62.988
1584600542.946,-2.441,22.949,21.484,-120.117,55.664
1584600542.950,37.598,32.227,25.879,83.496,40.527
1584600542.954,54.199,28.809,31.738,180.664,58.594
1584600542.958,16.113,13.672,31.250,2.930,52.246
1584600542.962,-5.859,14.648,20.996,-139.648,17.578
1584600542.966,31.250,35.645,23.438,21.484,31.250
1584600542.970,53.711,39.062,26.855,189.453,43.457
1584600542.974,23.438,22.949,19.043,62.012,26.367
1584600542.977,-13.184,13.672,18.066,-139.160,16.113
1584600542.981,6.836,18.555,28.809,-50.293,21.973
1584600542.985,50.293,23.926,29.297,156.250,-3.418
1584600542.989,36.621,25.879,19.531,115.234,15.137
1584600542.993,4.395,22.461,16.113,-91.309,12.695
1584600542.997,18.066,20.996,25.391,-81.543,-17.090
1584600543.001,51.270,28.320,33.203,141.602,-7.324
1584600543.005,39.551,30.762,29.297,163.574,32.227
1584600543.009,-4.883,22.949,24.902,-52.246,47.363
1584600543.013,-6.836,21.484,25.391,-127.441,32.715
1584600543.017,38.574,27.344,25.879,79.102,30.762
1584600543.020,52.246,28.320,23.926,195.312,66.406
1584600543.024,12.207,19.531,27.832,22.461,76.660
1584600543.028,-8.789,15.137,30.273,-131.348,14.648
1584600543.032,29.297,27.832,28.320,14.160,6.348
1584600543.036,58.105,32.715,27.344,181.641,-4.395
1584600543.040,32.715,28.320,25.391,77.148,51.758
1584600543.044,-8.789,26.367,21.973,-120.605,95.703
1584600543.048,8.301,31.250,27.344,-56.641,46.875
1584600543.052,56.152,33.203,32.227,165.039,30.762
1584600543.056,48.828,26.855,30.273,145.508,34.180
1584600543.060,10.742,22.461,27.344,-69.336,58.594
1584600543.063,10.254,21.484,29.785,-94.727,22.461
1584600543.067,44.922,29.785,32.715,104.492,-40.039
1584600543.071,52.246,35.156,29.297,156.250,-0.977
1584600543.075,9.277,30.762,23.926,-33.691,1.953
1584600543.079,-6.348,28.809,20.020,-126.953,0.000
1584600543.083,37.109,35.156,25.879,60.547,0.000
1584600543.087,52.246,36.621,30.273,194.824,-11.719
1584600543.091,16.602,26.855,26.855,40.527,4.883
1584600543.095,-11.719,22.461,28.809,-134.766,-10.742
1584600543.099,18.555,28.320,29.785,-16.113,24.414
1584600543.102,53.223,32.715,30.273,174.316,118.652
1584600543.106,34.180,24.902,29.785,89.844,63.965
1584600543.110,-1.953,18.555,22.949,-126.953,-33.203
1584600543.114,9.277,25.391,24.902,-72.754,9.766
1584600543.118,42.480,31.250,31.738,142.090,25.391
1584600543.122,31.250,27.344,37.109,134.277,-46.875
1584600543.126,-14.160,18.555,36.133,-81.543,-75.684
1584600543.130,-21.484,23.926,32.715,-126.953,14.648
1584600543.134,24.902,36.133,35.645,93.750,11.230
1584600543.138,45.898,33.691,32.715,171.387,-9.766
1584600543.142,13.672,27.344,23.438,-20.020,26.855
1584600543.145,-8.789,27.832,25.879,-136.230,26.855
1584600543.149,19.531,31.250,38.574,44.434,42.969
1584600543.153,42.480,26.855,45.898,197.754,67.383
1584600543.157,14.160,14.648,43.457,52.246,52.246
1584600543.161,-19.531,11.230,31.250,-134.277,32.715
1584600543.165,2.441,24.902,27.344,-31.250,5.859
1584600543.169,38.574,31.250,31.738,159.668,11.719
1584600543.173,24.902,19.531,32.227,90.820,79.590
1584600543.177,-12.695,11.719,33.203,-115.723,13.672
1584600543.181,-3.418,17.578,36.133,-79.102,20.508
1584600543.185,46.387,26.367,37.109,145.508,69.336
1584600543.188,44.434,20.996,33.691,152.832,40.527
1584600543.192,6.348,15.625,28.809,-63.965,51.270
1584600543.196,3.906,20.508,28.320,-119.141,41.016
1584600543.200,30.273,25.391,33.203,90.332,48.340
1584600543.204,39.062,24.414,36.621,179.199,24.902
1584600543.208,8.789,16.113,35.156,-4.395,29.785
1584600543.212,-11.719,15.137,28.320,-135.742,62.500
1584600543.216,15.137,26.367,27.344,15.137,77.148
1584600543.220,36.621,33.203,30.762,167.480,64.453
1584600543.224,15.625,27.344,26.855,52.734,55.176
1584600543.227,-15.137,21.973,22.949,-132.324,59.570
1584600543.231,10.742,27.832,27.344,-36.133,64.453
1584600543.235,46.875,34.668,33.691,173.828,39.062
1584600543.239,30.273,33.691,30.762,122.070,31.738
1584600543.243,-5.371,20.508,28.809,-89.355,41.992
1584600543.247,-0.977,19.531,31.738,-89.355,31.738
1584600543.251,36.621,25.879,36.133,118.164,-16.602
1584600543.255,42.480,23.438,33.691,159.180,-27.832
1584600543.259,6.348,16.602,27.832,-44.922,53.711
1584600543.263,-8.789,13.672,29.785,-123.047,68.359
1584600543.267,31.250,19.531,35.156,82.031,0.000
1584600543.270,48.828,23.438,34.668,193.848,11.230
1584600543.274,10.742,20.020,28.809,16.113,93.262
1584600543.278,-16.602,21.484,25.391,-138.672,74.219
1584600543.282,17.090,30.273,30.273,15.625,27.344
1584600543.286,44.922,30.273,32.227,192.871,50.781
1584600543.290,15.625,19.043,29.297,79.102,41.504
1584600543.294,-20.508,14.648,26.367,-122.070,76.172
1584600543.298,0.000,22.461,29.297,-54.688,30.273
1584600543.302,42.480,32.715,29.297,150.391,-42.480
1584600543.306,40.039,33.691,27.344,124.023,-7.812
1584600543.310,-5.859,24.902,27.832,-96.191,-6.836
1584600543.313,-6.836,27.344,27.344,-107.910,-13.184
1584600543.317,40.527,36.621,27.832,115.234,-12.207
1584600543.321,39.551,35.156,27.344,165.039,-20.020
1584600543.325,1.465,23.926,28.809,-33.691,-3.906
1584600543.329,-2.930,25.879,31.250,-120.117,-4.883
1584600543.333,32.227,36.621,35.645,63.477,25.879
1584600543.337,30.762,36.133,35.156,173.828,87.402
1584600543.341,-4.883,32.227,25.391,15.625,67.383
1584600543.345,-23.926,30.762,20.020,-146.973,75.195
1584600543.349,13.184,32.715,24.414,-14.160,31.250
1584600543.352,53.711,38.086,29.785,169.922,10.742
1584600543.356,25.879,35.156,26.855,71.289,5.371
1584600543.360,-16.113,29.297,21.484,-134.766,-28.809
1584600543.364,0.000,36.621,24.414,-75.195,10.254
1584600543.368,25.391,39.551,32.715,135.254,26.367
1584600543.372,10.742,31.250,35.645,115.723,-4.883
1584600543.376,-21.484,26.367,31.738,-93.750,23.926
1584600543.380,-6.348,31.738,32.227,-111.816,29.297
1584600543.384,43.945,40.039,35.156,101.074,29.297
1584600543.388,41.504,38.574,30.762,160.645,31.250
1584600543.392,-7.812,30.762,23.926,-30.273,34.668
1584600543.395,-20.020,26.367,28.320,-135.254,26.855
1584600543.399,26.855,28.809,36.133,57.129,19.531
1584600543.403,51.758,32.227,33.691,195.801,58.594
1584600543.407,12.207,29.297,25.391,35.156,22.949
1584600543.411,-15.137,27.832,22.461,-146.973,-22.461
1584600543.415,15.625,35.645,26.855,-27.344,47.852
1584600543.419,44.922,41.992,29.297,179.199,24.902
1584600543.423,24.414,35.156,24.414,102.051,51.758
1584600543.427,-13.184,27.344,22.461,-119.629,48.828
1584600543.431,3.906,33.691,25.391,-83.008,12.695
1584600543.435,48.828,41.016,28.320,145.508,80.566
1584600543.438,42.480,37.109,30.273,152.344,62.988
1584600543.442,-6.348,25.879,24.414,-68.848,36.621
1584600543.446,-10.742,28.320,24.902,-117.676,-6.348
1584600543.450,44.922,36.133,35.645,107.422,-46.387
1584600543.454,63.477,31.250,34.668,196.289,-27.832
1584600543.458,22.461,24.902,27.832,-6.348,21.484
1584600543.462,-9.277,27.832,25.391,-145.508,50.293
1584600543.466,11.719,35.156,22.949,17.578,-21.484
1584600543.470,44.922,39.551,21.973,178.223,12.207
1584600543.474,19.531,34.180,21.484,54.199,38.086
1584600543.477,-20.020,26.855,20.996,-133.301,18.066
1584600543.481,11.719,28.320,25.879,-25.391,78.125
1584600543.485,54.688,36.133,31.738,182.129,65.918
1584600543.489,37.598,36.133,23.926,106.445,31.250
1584600543.493,-7.812,24.414,16.113,-117.188,6.836
1584600543.497,8.789,30.273,17.090,-82.520,3.906
1584600543.501,55.664,43.457,16.602,134.277,-13.184
1584600543.505,35.645,36.133,17.578,137.695,-17.090
1584600543.509,-5.859,24.414,23.438,-67.871,16.113
1584600543.513,-3.906,25.879,23.926,-121.094,100.098
1584600543.517,33.203,34.180,24.902,85.938,72.754
1584600543.520,39.551,33.203,28.320,179.688,5.859
1584600543.524,1.953,27.832,25.391,2.930,34.180
1584600543.528,-11.230,28.320,22.949,-134.277,19.531
1584600543.532,32.715,32.715,30.273,28.320,34.180
1584600543.536,53.711,29.297,31.738,192.383,20.996
1584600543.540,17.090,20.996,23.926,59.082,-19.531
1584600543.544,-20.020,19.043,19.043,-144.043,8.789
1584600543.548,-0.488,29.297,22.461,-49.805,51.270
1584600543.552,44.434,39.551,21.973,168.457,60.059
1584600543.556,37.598,32.715,23.438,129.883,14.160
1584600543.560,1.465,26.855,23.438,-86.914,-7.324
1584600543.563,6.348,29.297,25.391,-95.215,-2.441
1584600543.567,43.457,29.785,34.668,127.441,1.953
1584600543.571,44.434,26.855,28.809,176.270,19.531
1584600543.575,-8.301,20.020,19.531,-38.086,60.547
1584600543.579,-17.090,23.438,19.043,-134.277,49.316
1584600543.583,34.668,33.691,21.484,61.035,2.930
1584600543.587,52.246,36.621,20.508,180.664,10.254
1584600543.591,18.066,30.273,15.137,21.484,30.273
1584600543.595,-13.672,24.414,17.578,-136.230,-41.016
1584600543.599,8.301,30.273,23.438,0.000,-27.832
1584600543.602,42.969,36.133,18.555,178.711,-13.672
1584600543.606,29.785,31.738,15.625,87.891,20.996
1584600543.610,-5.371,22.461,13.672,-122.070,61.523
1584600543.614,18.555,25.879,19.531,-66.895,9.277
1584600543.618,56.152,29.785,30.762,153.809,53.223
1584600543.622,30.762,23.438,28.320,127.930,36.133
1584600543.626,-11.230,19.043,16.602,-88.379,-2.930
1584600543.630,-0.488,26.367,13.184,-104.492,48.828
1584600543.634,43.457,32.227,18.555,106.445,10.742
1584600543.638,43.457,26.855,23.926,154.297,-1.465
1584600543.642,4.883,20.508,24.414,-36.621,0.000
1584600543.645,-9.766,15.625,27.832,-126.465,-12.695
1584600543.649,27.832,25.391,33.203,63.965,69.336
1584600543.653,39.551,33.203,31.738,186.035,55.176
1584600543.657,5.371,29.785,22.949,24.902,29.297
1584600543.661,-19.531,25.879,13.184,-145.020,-12.207
1584600543.665,1.465,26.855,19.043,-19.043,-30.273
1584600543.669,43.457,33.691,26.855,177.734,4.883
1584600543.673,28.809,27.344,29.785,98.145,-14.160
1584600543.677,-17.578,18.066,26.855,-112.305,23.926
1584600543.681,-5.371,23.926,20.020,-79.102,27.344
1584600543.685,40.039,32.227,18.066,131.348,5.859
1584600543.688,38.086,31.250,12.695,129.395,72.754
1584600543.692,-12.695,26.367,7.812,-86.914,25.391
1584600543.696,-18.066,28.320,11.719,-132.324,-24.902
1584600543.700,41.504,28.809,25.391,88.379,40.527
1584600543.704,57.617,21.973,35.645,177.246,63.477
1584600543.708,10.254,13.184,34.668,-17.578,13.672
1584600543.712,-23.926,15.625,27.344,-144.531,-3.418
1584600543.716,9.766,28.809,25.879,28.809,31.738
1584600543.720,50.781,35.156,25.879,183.105,4.395
1584600543.724,21.973,27.344,19.531,45.898,2.441
1584600543.727,-13.184,21.973,17.090,-148.926,19.043
1584600543.731,12.695,27.344,22.461,-36.133,16.113
1584600543.735,46.387,28.809,26.367,176.758,23.926
1584600543.739,35.645,24.414,26.367,112.305,20.020
1584600543.743,-4.883,19.531,24.902,-93.262,53.223
1584600543.747,-2.441,25.879,24.902,-75.684,42.969
1584600543.751,41.016,32.715,26.855,134.277,15.625
1584600543.755,47.363,28.809,26.367,153.809,19.043
1584600543.759,2.441,20.508,22.949,-58.594,-8.301
1584600543.763,-7.324,21.973,21.484,-125.977,25.391
1584600543.767,38.574,31.738,20.508,73.242,53.711
1584600543.770,48.828,31.738,18.066,176.270,76.660
1584600543.774,16.602,25.879,19.043,6.348,88.867
1584600543.778,-6.348,24.414,19.043,-133.301,74.707
1584600543.782,15.137,22.949,23.926,19.531,59.570
1584600543.786,45.410,21.973,22.461,175.293,0.000
1584600543.790,22.461,27.344,13.184,52.734,-0.488
1584600543.794,-14.160,28.320,7.324,-132.812,3.906
1584600543.798,9.277,35.156,13.184,-39.062,-17.578
1584600543.802,45.898,40.039,27.832,163.574,21.973
1584600543.806,28.809,24.414,27.344,112.305,73.242
1584600543.810,-13.672,12.695,19.531,-102.051,54.199
1584600543.813,-10.254,20.020,20.508,-94.238,67.871
1584600543.817,30.273,31.250,25.391,122.559,83.984
1584600543.821,33.203,33.691,25.879,154.785,62.500
1584600543.825,-7.812,25.879,20.996,-50.293,71.289
1584600543.829,-7.812,19.043,25.391,-125.488,19.043
1584600543.833,41.992,20.020,34.180,71.777,2.441
1584600543.837,42.969,25.391,28.809,172.852,35.645
1584600543.841,-2.441,22.461,22.461,0.000,60.059
1584600543.845,-24.414,23.926,22.949,-153.809,78.613
1584600543.849,9.766,34.668,23.926,0.977,95.703
1584600543.852,48.828,34.180,22.461,187.988,67.383
1584600543.856,29.297,25.879,19.531,76.172,62.988
1584600543.860,-20.996,19.531,14.648,-130.371,67.871
1584600543.864,-1.465,21.973,20.996,-60.547,44.922
1584600543.868,54.199,25.391,31.738,160.645,10.742
1584600543.872,41.504,18.066,30.762,137.695,-35.156
1584600543.876,-11.719,13.672,21.484,-92.773,6.836
1584600543.880,-13.672,23.926,17.090,-124.023,27.344
1584600543.884,33.203,37.598,20.020,103.027,73.242
1584600543.888,48.340,38.574,20.996,174.316,57.617
1584600543.892,7.324,27.344,17.090,-23.438,7.324
1584600543.895,-7.324,23.438,16.113,-122.559,32.715
1584600543.899,33.203,23.926,23.926,60.059,-8.789
1584600543.903,55.664,21.973,24.414,175.293,15.137
1584600543.907,28.809,19.043,19.531,27.832,64.453
1584600543.911,-13.184,19.531,18.066,-129.395,30.762
1584600543.915,1.953,24.414,21.484,-8.789,24.902
1584600543.919,41.992,25.879,25.879,171.387,47.363
1584600543.923,35.156,18.555,21.973,87.402,30.273
1584600543.927,5.371,15.137,23.438,-112.305,41.992
1584600543.931,9.277,20.996,26.367,-60.059,21.484
1584600543.935,43.457,29.785,22.461,151.367,4.395
1584600543.938,35.645,33.203,15.625,140.625,19.531
1584600543.942,-8.301,25.879,12.207,-83.496,2.930
1584600543.946,-7.324,26.855,15.625,-120.605,-6.348
1584600543.950,41.992,33.203,24.902,99.609,8.789
1584600543.954,51.270,34.180,25.879,163.574,82.031
1584600543.958,9.277,25.879,19.043,-30.762,62.500
1584600543.962,-5.859,19.531,17.090,-142.090,57.617
1584600543.966,37.109,28.320,28.320,38.574,54.199
1584600543.970,54.688,30.273,33.691,182.129,28.320
1584600543.974,16.602,18.555,25.879,36.621,23.926
1584600543.977,-14.648,12.695,20.996,-144.043,3.418
1584600543.981,11.230,24.414,23.926,-32.227,36.621
1584600543.985,42.969,32.715,31.250,166.504,0.000
1584600543.989,27.344,22.949,29.297,106.445,-29.785
1584600543.993,-5.859,14.160,19.043,-109.375,26.367
1584600543.997,5.371,22.949,20.020,-92.285,54.199
1584600544.001,47.363,30.762,34.668,138.184,31.738
1584600544.005,38.086,22.461,34.180,154.785,21.484
1584600544.009,-6.836,12.207,21.484,-67.871,52.734
1584600544.013,-16.113,16.113,18.555,-125.000,48.340
1584600544.017,28.320,27.832,22.949,90.820,-6.348
1584600544.020,49.316,26.855,30.273,184.570,29.785
1584600544.024,18.066,17.578,28.320,2.441,32.227
1584600544.028,-3.418,19.531,27.344,-129.395,-7.324
1584600544.032,25.391,29.785,32.715,31.738,38.086
1584600544.036,51.270,34.668,30.762,194.824,36.133
1584600544.040,22.949,26.855,28.809,66.406,25.391
1584600544.044,-16.113,17.090,25.879,-134.766,24.414
1584600544.048,11.230,20.996,26.367,-36.133,57.129
1584600544.052,47.363,25.879,28.320,172.852,79.102
1584600544.056,27.344,21.484,26.367,117.676,61.523
1584600544.060,-6.836,16.602,22.461,-107.422,20.996
1584600544.063,12.695,22.461,27.344,-95.215,35.156
1584600544.067,57.617,30.273,32.715,132.324,14.648
1584600544.071,43.945,26.367,28.809,165.527,28.809
1584600544.075,-9.766,22.461,22.949,-41.992,42.480
1584600544.079,-18.066,25.879,21.484,-124.512,48.828
1584600544.083,31.738,28.320,24.902,72.754,41.992
1584600544.087,55.664,26.367,29.297,187.988,19.531
1584600544.091,18.555,18.555,27.344,11.230,29.785
1584600544.095,-11.230,14.648,23.926,-138.672,45.898
1584600544.099,23.438,23.438,24.902,16.602,27.344
1584600544.102,56.152,34.668,31.250,186.035,40.527
1584600544.106,24.414,30.762,33.203,76.172,21.973
1584600544.110,-12.695,18.066,23.926,-118.652,12.695
1584600544.114,13.672,23.438,24.902,-44.434,34.180
1584600544.118,60.547,30.762,35.645,167.480,14.160
1584600544.122,47.363,25.391,31.250,130.859,20.996
1584600544.126,1.953,17.578,25.391,-85.938,11.719
1584600544.130,7.324,20.508,34.180,-86.426,30.762
1584600544.134,54.688,27.832,37.598,129.883,49.316
1584600544.138,58.105,26.855,32.227,169.922,81.543
1584600544.142,3.906,18.555,22.949,-40.527,68.359
1584600544.145,-10.742,17.090,20.508,-136.230,22.461
1584600544.149,30.762,24.414,28.809,54.199,20.508
1584600544.153,52.246,28.320,32.715,183.594,42.480
1584600544.157,18.066,22.949,26.855,27.832,-3.906
1584600544.161,-15.625,17.578,24.902,-145.508,16.113
1584600544.165,19.531,23.926,30.762,-16.113,47.852
1584600544.169,48.828,33.203,32.715,179.688,3.906
1584600544.173,25.391,28.809,27.832,93.262,17.578
1584600544.177,-11.719,17.578,20.996,-111.816,80.078
1584600544.181,0.977,20.020,22.949,-57.129,83.008
1584600544.185,44.434,28.809,30.762,156.250,63.477
1584600544.188,42.480,30.762,30.273,143.066,45.410
1584600544.192,11.719,23.926,25.879,-71.289,19.531
1584600544.196,8.301,20.508,26.367,-100.098,17.090
1584600544.200,32.227,22.949,28.320,112.793,23.926
1584600544.204,41.992,22.461,28.320,176.758,36.133
1584600544.208,13.672,16.113,27.832,-22.949,16.602
1584600544.212,-6.348,14.648,26.855,-133.301,-6.348
1584600544.216,27.832,25.391,32.227,59.082,49.805
1584600544.220,50.293,28.320,33.691,198.730,68.848
1584600544.224,22.949,23.926,27.344,41.016,24.414
1584600544.227,-1.953,23.926,20.020,-135.742,27.344
1584600544.231,30.273,32.227,21.973,-9.277,-2.930
1584600544.235,69.336,36.621,28.320,186.035,-22.949
1584600544.239,41.992,28.320,21.973,99.609,13.184
1584600544.243,2.930,19.043,14.648,-112.793,28.320
1584600544.247,17.090,23.926,17.578,-69.336,-0.977
1584600544.251,54.199,33.203,21.484,150.879,40.527
1584600544.255,52.734,27.344,24.414,154.785,82.031
1584600544.259,10.254,18.555,20.020,-59.082,47.363
1584600544.263,2.930,22.461,18.066,-101.562,24.414
1584600544.267,45.898,31.250,28.809,115.234,61.523
1584600544.270,60.059,34.668,32.715,189.453,29.297
1584600544.274,23.438,27.344,25.879,1.953,31.250
1584600544.278,-2.441,20.508,21.973,-125.000,61.035
1584600544.282,29.297,27.344,26.855,42.969,62.988
1584600544.286,55.176,34.180,30.762,197.754,85.449
1584600544.290,26.367,28.809,28.809,61.035,58.594
1584600544.294,-4.395,23.438,25.879,-128.906,38.574
1584600544.298,22.949,31.738,29.297,-29.785,58.594
1584600544.302,66.895,41.992,30.273,175.293,61.035
1584600544.306,54.688,35.156,24.902,128.418,45.898
1584600544.310,2.441,21.484,22.461,-91.309,33.203
1584600544.313,1.953,24.414,27.344,-82.520,36.621
1584600544.317,46.875,35.156,32.715,142.578,27.344
1584600544.321,48.340,34.180,30.762,168.457,6.348
1584600544.325,4.883,23.438,28.320,-45.898,33.203
1584600544.329,0.488,25.391,25.879,-120.117,-8.301
1584600544.333,46.875,35.645,26.367,82.031,-46.387
1584600544.337,49.316,32.227,26.855,190.918,46.387
1584600544.341,11.230,24.414,25.391,15.625,60.059
1584600544.345,-1.953,26.855,31.250,-129.395,-10.742
1584600544.349,33.691,35.156,37.598,38.086,58.594
1584600544.352,58.105,36.133,36.621,200.684,76.660
1584600544.356,33.691,31.738,31.738,74.219,27.344
1584600544.360,-3.418,28.320,26.367,-119.141,19.043
1584600544.364,16.113,35.645,31.738,-29.785,3.418
1584600544.368,59.082,40.039,39.062,183.105,-14.160
1584600544.372,44.922,32.227,31.250,138.184,-10.254
1584600544.376,2.441,25.391,22.949,-80.566,-10.742
1584600544.380,8.789,29.785,26.367,-84.473,-17.578
1584600544.384,47.852,36.133,32.227,131.836,-0.488
1584600544.388,48.340,30.273,34.180,168.945,41.016
1584600544.392,10.742,23.438,31.738,-31.250,107.422
1584600544.395,3.906,25.391,31.250,-113.770,91.797
1584600544.399,46.875,32.227,36.133,85.449,26.855
1584600544.403,66.406,33.203,35.156,204.590,8.789
1584600544.407,35.156,27.344,28.809,32.715,26.367
1584600544.411,5.371,26.367,24.414,-126.465,13.672
1584600544.415,27.344,30.762,26.855,10.742,11.230
1584600544.419,56.152,37.598,32.227,190.430,-17.090
1584600544.423,28.809,35.156,32.715,92.773,-3.906
1584600544.427,-15.137,20.508,29.785,-110.840,45.410
1584600544.431,8.789,25.879,29.785,-55.664,49.316
1584600544.435,52.734,35.645,33.203,155.762,73.242
1584600544.438,44.434,30.762,32.715,142.090,16.602
1584600544.442,5.859,20.020,28.320,-74.707,-22.949
1584600544.446,4.883,22.461,27.344,-100.586,0.000
1584600544.450,42.480,36.621,28.809,112.305,29.297
1584600544.454,41.016,33.691,25.879,171.387,42.969
1584600544.458,1.465,19.531,21.973,-24.414,34.180
1584600544.462,-12.695,21.484,23.438,-126.465,69.824
1584600544.466,23.438,34.180,28.809,54.199,73.242
1584600544.470,46.387,38.086,31.738,185.059,46.387
1584600544.474,20.508,34.180,25.391,34.180,83.496
1584600544.477,-4.883,30.273,19.043,-141.113,59.570
1584600544.481,22.949,32.227,24.414,-13.672,14.648
1584600544.485,48.340,36.133,35.645,186.523,48.828
1584600544.489,18.066,31.738,34.180,101.562,22.949
1584600544.493,-20.996,23.926,29.297,-106.934,24.414
1584600544.497,0.488,27.344,35.156,-61.523,12.207
1584600544.501,41.992,35.156,38.574,152.832,38.086
1584600544.505,31.250,31.250,36.621,149.414,45.898
1584600544.509,-5.371,20.508,30.762,-70.312,34.668
1584600544.513,-7.812,21.973,30.762,-113.770,69.824
1584600544.517,36.133,31.738,39.062,101.074,53.223
1584600544.520,46.875,30.273,35.645,176.270,12.695
1584600544.524,9.277,20.996,26.855,-11.230,-26.855
1584600544.528,-6.348,22.949,27.832,-128.418,29.785
1584600544.532,28.320,34.180,36.133,38.574,0.488
1584600544.536,55.664,35.156,41.016,185.059,-33.203
1584600544.540,33.691,25.879,33.203,50.781,13.184
1584600544.544,-9.766,17.090,26.367,-126.465,-18.066
1584600544.548,10.254,20.996,34.668,-19.531,-23.926
1584600544.552,46.387,27.344,38.086,179.688,41.992
1584600544.556,27.344,23.926,36.133,113.281,26.855
1584600544.560,-5.859,19.531,33.691,-101.074,0.977
1584600544.563,3.418,24.902,32.227,-76.660,5.371
1584600544.567,44.434,32.715,40.039,149.902,33.691
1584600544.571,45.898,23.438,35.156,164.551,39.551
1584600544.575,1.953,15.625,28.809,-55.664,12.695
1584600544.579,-7.812,17.090,32.715,-108.887,26.367
1584600544.583,34.668,23.438,34.180,89.844,9.766
1584600544.587,49.316,26.855,31.738,177.734,-12.695
1584600544.591,10.742,20.020,23.438,10.254,44.434
1584600544.595,-16.113,18.066,20.020,-127.441,36.621
1584600544.599,18.066,25.391,25.391,26.367,-47.852
1584600544.602,46.875,30.273,33.203,192.871,-8.789
1584600544.606,24.414,29.297,31.738,73.730,41.504
1584600544.610,-5.371,18.066,27.832,-128.418,20.020
1584600544.614,10.742,20.020,34.180,-40.039,26.367
1584600544.618,47.852,29.785,39.551,174.805,67.383
1584600544.622,42.480,27.344,42.969,134.766,24.902
1584600544.626,0.000,19.043,37.598,-91.309,-8.789
1584600544.630,7.812,23.438,33.203,-97.168,-2.441
1584600544.634,45.410,34.180,37.109,131.348,9.277
1584600544.638,46.387,31.738,38.574,163.574,63.965
1584600544.642,15.137,21.484,38.086,-43.945,38.086
1584600544.645,0.977,19.531,36.621,-122.070,-45.410
1584600544.649,35.156,25.879,36.621,74.219,-17.578
1584600544.653,41.504,25.391,37.598,189.453,32.715
1584600544.657,5.371,15.625,36.621,24.902,-16.602
1584600544.661,-7.812,14.648,33.203,-128.418,25.391
1584600544.665,21.484,23.438,34.668,8.789,8.789
1584600544.669,45.898,24.902,36.133,180.664,-13.184
1584600544.673,18.555,17.578,34.668,72.754,61.035
1584600544.677,-14.160,14.160,31.738,-128.418,1.465
1584600544.681,14.648,19.531,33.203,-53.223,-7.812
1584600544.685,58.594,25.391,36.621,165.039,54.688
1584600544.688,47.363,24.414,33.691,137.695,88.379
1584600544.692,-2.930,14.160,31.250,-86.914,41.992
1584600544.696,-0.977,16.113,34.180,-94.727,-31.250
1584600544.700,49.316,28.809,39.062,136.719,12.695
1584600544.704,52.246,22.949,38.086,182.129,-3.418
1584600544.708,4.883,13.184,29.297,-25.879,14.160
1584600544.712,-10.742,14.160,22.461,-122.070,40.527
1584600544.716,29.297,20.508,26.367,59.082,22.949
1584600544.720,47.852,25.879,30.273,184.570,40.527
1584600544.724,15.137,19.531,24.414,37.598,6.348
1584600544.727,-8.789,11.719,19.531,-127.930,14.648
1584600544.731,20.996,16.602,25.879,-4.395,21.484
1584600544.735,52.734,26.367,30.762,187.500,22.949
1584600544.739,38.086,26.367,28.809,103.516,27.344
1584600544.743,-1.953,16.602,27.344,-108.398,45.898
1584600544.747,7.812,16.602,25.879,-59.082,59.570
1584600544.751,53.711,27.344,28.320,155.273,37.109
1584600544.755,48.340,28.320,32.227,146.973,18.555
1584600544.759,1.465,17.578,29.785,-65.918,81.055
1584600544.763,-3.906,16.602,26.367,-109.375,80.566
1584600544.767,37.598,29.785,29.297,104.004,-7.324
1584600544.770,47.363,25.391,33.691,180.664,-16.602
1584600544.774,11.230,12.695,28.320,-7.812,22.461
1584600544.778,-3.906,16.602,24.902,-121.094,55.664
1584600544.782,34.180,27.344,28.320,52.246,31.738
1584600544.786,51.758,25.391,25.391,191.406,7.812
1584600544.790,14.160,21.973,21.484,51.270,-23.926
1584600544.794,-18.555,24.902,21.973,-129.395,-20.996
1584600544.798,12.695,27.832,27.344,-10.742,62.500
1584600544.802,56.641,28.809,28.809,190.430,44.434
1584600544.806,41.992,25.879,22.461,107.422,5.859
1584600544.810,3.418,22.461,19.531,-110.352,68.359
1584600544.813,12.695,28.320,24.414,-78.613,38.574
1584600544.817,50.781,33.203,30.273,147.461,4.883
1584600544.821,44.922,28.320,27.344,162.109,-17.090
1584600544.825,3.418,22.949,23.926,-55.664,-42.480
1584600544.829,-0.488,24.902,23.926,-115.723,3.906
1584600544.833,35.645,28.809,23.926,91.309,36.621
1584600544.837,49.805,26.855,21.973,181.152,34.668
1584600544.841,10.742,20.996,20.020,-0.977,14.648
1584600544.845,-16.602,21.484,20.020,-126.465,34.180
1584600544.849,18.555,30.273,20.996,30.273,49.316
1584600544.852,47.363,35.156,22.949,182.617,45.410
1584600544.856,26.367,29.785,21.973,63.965,8.301
1584600544.860,-1.953,25.391,20.508,-123.047,34.668
1584600544.864,13.672,28.320,24.902,-31.250,107.910
1584600544.868,45.898,31.250,24.902,174.316,85.449
1584600544.872,28.320,24.902,23.926,121.094,27.344
1584600544.876,-14.160,17.578,24.414,-100.586,40.039
1584600544.880,2.930,24.902,27.344,-88.867,99.121
1584600544.884,44.922,37.109,29.297,135.254,70.312
1584600544.888,36.133,35.156,28.809,165.039,-4.883
1584600544.892,-3.418,21.973,27.832,-41.504,-20.020
1584600544.895,-14.160,17.578,28.809,-119.629,-7.324
1584600544.899,25.879,26.367,32.715,76.172,2.930
1584600544.903,49.316,30.273,30.273,186.035,17.578
1584600544.907,20.020,22.949,24.902,16.113,48.340
1584600544.911,-2.930,20.996,22.461,-136.230,66.406
1584600544.915,27.832,30.273,27.344,10.254,13.184
1584600544.919,49.316,33.691,33.203,191.406,32.715
1584600544.923,25.879,27.344,30.273,83.008,49.805
1584600544.927,-8.789,20.508,24.902,-116.211,4.883
1584600544.931,1.465,21.973,30.273,-40.039,-17.578
1584600544.935,39.062,25.879,33.691,165.039,3.418
1584600544.938,35.645,24.414,29.785,135.254,20.508
1584600544.942,0.488,16.113,23.926,-82.031,20.508
1584600544.946,-1.465,20.508,17.090,-101.562,25.391
1584600544.950,41.016,32.715,20.996,120.117,29.297
1584600544.954,52.246,32.715,25.879,172.363,15.137
1584600544.958,14.160,24.902,20.020,-36.621,-4.395
1584600544.962,0.488,25.879,18.555,-129.883,-21.973
1584600544.966,39.551,34.668,23.438,61.035,-4.395
1584600544.970,59.082,37.109,24.902,187.988,0.977
1584600544.974,21.973,32.715,20.508,31.250,-6.836
1584600544.977,-12.695,27.344,21.484,-127.441,23.438
1584600544.981,19.043,33.691,26.367,9.277,21.484
1584600544.985,57.129,38.574,26.855,192.871,83.496
1584600544.989,37.598,31.250,26.367,101.074,83.008
1584600544.993,-3.906,24.414,23.438,-112.305,-3.906
1584600544.997,11.719,30.762,24.414,-54.688,25.391
1584600545.001,47.363,35.156,29.297,161.621,76.172
1584600545.005,33.203,29.785,29.297,138.184,73.730
1584600545.009,-3.418,20.020,21.484,-79.590,56.641
1584600545.013,-1.465,20.020,22.949,-108.398,29.785
1584600545.017,43.457,31.250,29.297,104.492,29.297
1584600545.020,50.781,30.762,28.320,180.664,55.664
1584600545.024,7.324,20.020,22.949,-13.184,34.668
1584600545.028,-9.766,19.043,25.391,-140.137,19.531
1584600545.032,25.391,25.879,34.180,39.062,-1.465
1584600545.036,47.852,24.902,35.645,179.199,-12.207
1584600545.040,15.625,20.508,32.227,37.109,20.020
1584600545.044,-14.648,20.508,29.297,-138.184,36.621
1584600545.048,13.672,25.879,32.227,-26.367,39.062
1584600545.052,55.176,34.668,40.039,172.363,15.137
1584600545.056,32.715,33.691,35.156,97.656,-6.348
1584600545.060,-10.254,24.902,25.391,-118.164,-15.137
1584600545.063,5.371,23.438,29.297,-76.172,38.086
1584600545.067,44.434,27.832,34.668,149.414,62.012
1584600545.071,43.457,25.879,33.203,147.949,19.531
1584600545.075,9.766,20.508,32.715,-69.336,23.438
1584600545.079,5.859,22.461,33.203,-119.629,62.988
1584600545.083,41.992,28.320,37.109,89.844,68.359
1584600545.087,57.129,30.273,41.992,177.246,75.195
1584600545.091,20.508,24.902,34.180,-13.672,19.531
1584600545.095,-8.301,22.949,24.414,-144.043,-34.668
1584600545.099,25.879,35.156,30.273,29.785,10.742
1584600545.102,51.758,41.016,37.598,188.965,81.055
1584600545.106,24.902,27.832,35.156,59.570,23.926
1584600545.110,-13.672,18.555,28.809,-126.953,-6.348
1584600545.114,7.324,26.855,32.227,-32.715,24.414
1584600545.118,50.293,33.203,39.062,172.363,34.668
1584600545.122,35.156,30.273,36.133,118.652,60.059
1584600545.126,-9.766,19.531,29.785,-101.074,-1.953
1584600545.130,-1.465,21.484,30.762,-85.938,41.016
1584600545.134,39.551,31.250,41.504,140.625,76.660
1584600545.138,26.855,27.344,43.457,164.551,1.953
1584600545.142,-16.602,21.484,35.645,-47.852,-15.625
1584600545.145,-21.484,22.461,30.273,-116.699,26.367
1584600545.149,21.973,29.785,30.273,83.496,36.621
1584600545.153,37.598,26.855,26.855,184.082,23.438
1584600545.157,3.906,16.113,20.020,4.395,15.137
1584600545.161,-18.555,15.625,24.414,-139.648,22.461
1584600545.165,17.090,27.344,32.227,13.184,0.977
1584600545.169,42.969,30.273,30.273,176.758,-12.207
1584600545.173,15.625,24.414,28.809,65.430,34.180
1584600545.177,-12.695,20.996,30.762,-125.000,13.672
1584600545.181,13.672,30.273,33.203,-47.852,30.762
1584600545.185,49.805,37.598,36.133,159.668,60.547
1584600545.188,33.691,31.250,33.203,125.000,56.152
1584600545.192,0.000,25.879,21.973,-94.238,66.406
1584600545.196,-0.977,27.344,21.973,-100.098,29.785
1584600545.200,30.273,28.809,32.227,121.094,44.922
1584600545.204,31.738,27.832,34.180,171.387,28.809
1584600545.208,-6.836,23.926,30.762,-38.086,52.734
1584600545.212,-12.695,23.438,28.809,-134.766,61.035
1584600545.216,27.832,30.273,32.715,62.012,48.828
1584600545.220,52.734,35.645,31.738,185.547,64.941
1584600545.224,27.832,28.320,26.367,19.043,31.250
1584600545.227,-3.418,22.461,25.391,-146.973,24.902
1584600545.231,16.602,32.227,30.273,-7.324,-4.883
1584600545.235,57.129,35.645,32.715,177.246,20.508
1584600545.239,46.387,30.762,29.785,81.543,46.387
1584600545.243,2.441,23.438,23.926,-121.582,-9.766
1584600545.247,3.906,28.809,24.414,-49.316,-6.836
1584600545.251,42.480,38.086,30.762,166.992,18.555
1584600545.255,39.551,33.691,33.691,141.113,23.926
1584600545.259,2.441,26.367,34.180,-70.312,13.184
1584600545.263,-0.977,28.809,34.668,-98.145,17.578
1584600545.267,42.969,38.086,33.203,115.234,17.090
1584600545.270,52.246,40.527,31.250,178.711,8.301
1584600545.274,10.742,27.344,32.227,-21.484,23.438
1584600545.278,-3.906,21.484,31.250,-128.418,17.090
1584600545.282,37.598,31.250,35.645,56.641,41.504
1584600545.286,65.430,36.133,39.551,188.477,34.180
1584600545.290,33.203,26.855,35.156,36.621,1.953
1584600545.294,0.000,20.508,35.645,-132.324,21.973
1584600545.298,25.391,24.902,38.574,-1.953,-7.324
1584600545.302,56.152,27.832,38.086,185.059,40.039
1584600545.306,35.156,25.879,34.668,89.355,63.477
1584600545.310,-2.441,20.020,28.809,-116.211,39.062
1584600545.313,13.184,27.344,31.250,-68.359,94.727
1584600545.317,48.340,37.109,34.180,147.949,49.316
1584600545.321,48.340,33.203,30.762,147.949,26.367
1584600545.325,15.625,24.902,25.391,-68.848,49.316
1584600545.329,10.742,24.414,24.902,-113.281,29.785
1584600545.333,49.316,33.203,29.297,100.098,50.293
1584600545.337,43.457,34.668,33.203,181.641,45.410
1584600545.341,0.977,25.391,33.691,-1.465,-36.621
1584600545.345,-10.254,23.438,29.297,-122.070,-41.992
1584600545.349,22.461,31.738,30.273,39.551,15.625
1584600545.352,50.293,35.156,29.785,187.500,32.227
1584600545.356,21.973,28.809,22.949,53.711,-6.348
1584600545.360,-15.137,25.879,17.578,-131.836,8.789
1584600545.364,15.137,29.785,24.902,-23.926,52.734
1584600545.368,55.176,36.621,30.273,177.246,22.461
1584600545.372,38.086,31.250,25.391,114.258,23.926
1584600545.376,-2.441,20.508,23.438,-99.609,76.660
1584600545.380,4.883,25.391,26.367,-82.520,32.715
1584600545.384,42.969,34.180,25.879,135.254,2.441
1584600545.388,41.016,29.297,26.855,160.156,65.918
1584600545.392,7.324,19.531,25.879,-47.363,16.602
1584600545.395,9.766,25.391,24.414,-120.117,-15.137
1584600545.399,47.363,35.645,30.273,86.426,23.926
1584600545.403,47.852,31.738,30.762,187.012,15.137
1584600545.407,6.348,22.461,24.414,8.789,30.762
1584600545.411,-18.555,16.113,24.414,-132.812,58.594
1584600545.415,17.090,24.902,32.715,21.484,56.641
1584600545.419,42.480,31.250,35.645,186.523,32.715
1584600545.423,14.648,26.367,29.297,61.523,51.758
1584600545.427,-17.578,20.996,22.949,-126.465,59.082
1584600545.431,11.230,26.855,26.367,-33.691,42.480
1584600545.435,52.246,35.645,30.273,164.062,33.691
1584600545.438,37.598,29.785,24.902,122.559,47.852
1584600545.442,2.930,24.414,20.996,-90.820,20.508
1584600545.446,6.836,25.391,24.414,-94.727,5.371
1584600545.450,44.434,28.809,34.668,125.000,58.105
1584600545.454,41.016,28.320,33.203,159.668,16.113
1584600545.458,0.000,22.461,20.020,-52.246,2.441
1584600545.462,-6.836,23.438,19.531,-125.488,41.504
1584600545.466,31.738,30.762,27.832,63.477,24.902
1584600545.470,46.387,32.227,31.250,171.387,8.789
1584600545.474,6.836,24.902,28.320,15.137,-13.184
1584600545.477,-25.391,16.602,27.832,-138.184,6.348
1584600545.481,7.812,24.414,31.250,2.441,8.301
1584600545.485,47.852,32.227,31.250,182.617,-7.324
1584600545.489,25.391,24.902,25.879,83.008,-4.883
1584600545.493,-12.207,25.391,21.973,-121.582,-48.340
1584600545.497,4.883,35.645,25.391,-50.293,-0.488
1584600545.501,42.480,36.621,34.668,166.992,57.129
1584600545.505,40.527,29.785,35.156,141.602,12.207
1584600545.509,6.348,22.461,26.367,-73.730,-7.812
1584600545.513,5.859,26.367,22.949,-101.562,54.199
1584600545.517,46.387,35.156,24.902,119.141,114.746
1584600545.520,48.828,31.738,24.414,179.199,81.543
1584600545.524,6.348,22.949,21.973,-31.738,47.363
1584600545.528,-9.277,21.973,21.973,-131.836,84.961
1584600545.532,32.227,29.785,25.879,61.523,42.480
1584600545.536,53.711,32.715,26.367,194.336,-25.391
1584600545.540,15.625,22.949,19.531,37.109,41.992
1584600545.544,-12.695,22.461,19.531,-131.348,44.922
1584600545.548,23.438,33.203,27.344,-3.906,0.488
1584600545.552,59.570,37.109,35.645,182.129,42.480
1584600545.556,38.574,33.691,32.227,95.215,65.430
1584600545.560,-2.441,24.414,23.926,-122.070,53.223
1584600545.563,3.906,22.949,23.438,-77.148,29.785
1584600545.567,47.363,30.762,28.809,148.926,13.672
1584600545.571,41.016,27.344,28.320,145.020,16.113
1584600545.575,-6.836,18.066,20.508,-75.195,18.555
1584600545.579,-13.672,20.020,21.484,-117.676,50.293
1584600545.583,28.320,28.320,26.855,103.027,93.262
1584600545.587,47.852,28.320,25.391,174.316,74.707
1584600545.591,10.742,20.996,20.996,-28.320,60.547
1584600545.595,-13.184,19.531,20.996,-144.531,54.199
1584600545.599,17.090,28.809,24.902,31.738,39.062
1584600545.602,45.898,32.227,33.203,183.594,31.738
1584600545.606,23.438,20.508,35.156,54.199,55.176
1584600545.610,-11.719,12.695,21.973,-136.230,80.566
1584600545.614,13.672,20.996,20.996,-27.832,75.684
1584600545.618,51.270,23.926,28.809,177.734,61.035
1584600545.622,26.855,16.113,27.832,110.840,37.109
1584600545.626,-14.648,12.695,22.949,-105.469,13.184
1584600545.630,0.000,18.555,27.344,-78.613,39.551
1584600545.634,36.621,25.879,30.273,147.461,6.348
1584600545.638,31.738,25.391,24.414,160.156,-31.250
1584600545.642,-7.324,16.602,18.066,-58.594,-44.922
1584600545.645,-6.836,16.602,19.531,-115.723,-21.973
1584600545.649,38.086,28.320,31.738,94.727,71.777
1584600545.653,52.734,30.762,32.227,189.941,40.527
1584600545.657,17.090,24.414,19.531,-1.465,-22.949
1584600545.661,-7.324,17.578,17.578,-146.484,6.348
1584600545.665,18.555,23.438,24.902,13.184,39.062
1584600545.669,46.875,31.250,28.809,182.129,21.484
1584600545.673,22.461,22.949,23.438,61.523,-0.977
1584600545.677,-18.066,16.113,18.066,-123.535,-6.836
1584600545.681,9.766,24.902,21.484,-36.133,-19.531
1584600545.685,52.246,32.227,26.367,164.062,-14.160
1584600545.688,44.434,25.391,29.785,120.605,-3.906
1584600545.692,-1.953,19.531,28.320,-93.262,13.184
1584600545.696,-3.906,23.926,27.832,-83.496,11.230
1584600545.700,47.852,29.785,30.762,135.254,-45.898
1584600545.704,44.922,24.414,28.809,161.133,28.320
1584600545.708,-1.465,16.113,24.902,-49.316,61.523
1584600545.712,-5.859,23.438,23.926,-120.605,68.848
1584600545.716,35.156,32.227,26.855,76.172,47.363
1584600545.720,56.641,34.668,29.297,192.383,25.879
1584600545.724,16.113,26.367,22.949,26.855,13.184
1584600545.727,-11.230,22.949,18.066,-136.230,-7.812
1584600545.731,26.367,33.203,20.996,12.207,9.766
1584600545.735,53.223,34.180,22.949,186.035,-5.371
1584600545.739,27.832,23.926,20.996,83.496,27.832
1584600545.743,-11.230,21.973,15.137,-118.652,30.762
1584600545.747,9.277,30.762,20.996,-48.828,46.875
1584600545.751,49.316,33.203,28.809,163.574,-20.508
1584600545.755,36.133,27.832,28.320,131.836,-13.184
1584600545.759,-1.953,20.996,21.973,-86.914,45.898
1584600545.763,0.977,20.996,22.949,-99.609,35.156
1584600545.767,47.852,31.250,33.203,124.023,39.062
1584600545.770,50.293,31.738,32.715,176.270,48.340
1584600545.774,1.953,22.461,20.508,-26.367,50.781
1584600545.778,-9.277,26.367,14.160,-127.930,14.160
1584600545.782,34.668,29.785,21.973,54.688,32.715
1584600545.786,55.176,25.879,26.367,184.570,51.270
1584600545.790,23.438,23.926,22.461,31.250,-9.766
1584600545.794,-2.441,20.508,20.020,-130.859,5.859
1584600545.798,24.414,22.949,23.926,-3.906,37.109
1584600545.802,50.781,29.785,29.785,181.152,38.086
1584600545.806,28.809,26.855,27.344,95.703,69.336
1584600545.810,-4.395,16.602,20.996,-118.164,-16.113
1584600545.813,17.090,22.949,20.020,-68.359,15.625
1584600545.817,57.129,35.156,26.855,163.086,83.496
1584600545.821,43.945,29.297,27.832,151.855,7.812
1584600545.825,1.953,20.020,21.973,-79.102,11.719
1584600545.829,4.395,24.414,24.414,-109.863,3.906
1584600545.833,50.781,33.691,25.879,105.469,-11.719
1584600545.837,46.875,27.832,22.949,177.246,68.359
1584600545.841,-8.789,17.578,19.043,-14.648,57.129
1584600545.845,-28.320,17.578,21.973,-135.254,29.785
1584600545.849,13.672,26.855,27.832,43.945,41.016
1584600545.852,45.410,26.855,25.391,190.918,51.270
1584600545.856,20.020,17.090,22.461,44.922,77.148
1584600545.860,-10.742,16.602,23.438,-132.812,35.645
1584600545.864,13.184,26.367,30.273,-10.742,-50.293
1584600545.868,46.875,31.250,29.785,175.293,-70.312
1584600545.872,29.785,24.902,24.902,97.168,-9.766
1584600545.876,-15.625,14.160,22.461,-113.770,-25.391
1584600545.880,-5.859,17.090,26.855,-76.660,-27.832
1584600545.884,44.434,33.691,35.156,151.367,18.555
1584600545.888,39.551,28.809,32.715,153.320,59.570
1584600545.892,-6.348,14.648,27.832,-62.500,30.273
1584600545.895,-9.277,17.090,30.273,-110.840,18.066
1584600545.899,33.691,26.855,34.668,93.262,22.461
1584600545.903,49.316,28.320,34.668,186.035,60.547
1584600545.907,14.648,18.066,31.250,1.953,59.570
1584600545.911,-12.207,16.113,31.250,-136.719,-4.395
1584600545.915,19.043,25.391,34.668,36.133,4.883
1584600545.919,46.875,33.203,33.203,194.824,27.344
1584600545.923,20.996,29.785,22.461,66.406,32.715
1584600545.927,-9.766,18.066,18.555,-123.047,6.348
1584600545.931,13.672,19.043,24.902,-26.855,10.254
1584600545.935,47.852,26.855,31.250,179.688,36.133
1584600545.938,35.645,25.391,30.273,122.559,42.969
1584600545.942,-3.906,19.043,20.508,-98.145,-5.371
1584600545.946,5.859,22.949,23.926,-86.426,-24.902
1584600545.950,45.898,28.809,32.227,139.160,-20.020
1584600545.954,35.645,22.949,22.949,165.039,3.418
1584600545.958,-5.859,16.602,16.113,-53.711,10.742
1584600545.962,-13.184,18.555,16.602,-125.000,59.570
1584600545.966,33.691,29.297,23.438,76.660,87.402
1584600545.970,51.758,31.738,27.832,181.152,-0.977
1584600545.974,15.137,19.531,20.996,8.301,-26.855
1584600545.977,-15.137,13.672,20.020,-144.531,-19.531
1584600545.981,15.137,25.391,28.809,7.812,9.766
1584600545.985,47.852,30.762,34.668,182.129,32.227
1584600545.989,22.949,26.367,29.785,80.566,1.953
1584600545.993,-6.348,22.461,26.367,-119.629,-24.902
1584600545.997,12.695,25.879,34.180,-49.805,0.977
1584600546.001,45.410,32.227,37.109,166.504,40.039
1584600546.005,32.715,23.926,27.832,125.488,18.555
1584600546.009,-10.254,14.160,22.949,-91.797,39.062
1584600546.013,-5.371,18.066,28.809,-95.703,45.410
1584600546.017,40.527,29.785,33.203,124.023,13.672
1584600546.020,43.457,30.762,28.809,167.969,23.926
1584600546.024,7.812,23.438,20.508,-40.527,22.461
1584600546.028,-1.953,25.879,22.949,-129.395,37.109
1584600546.032,32.715,30.273,30.762,61.523,92.285
1584600546.036,43.945,27.344,27.832,180.664,95.215
1584600546.040,8.301,19.531,20.996,17.090,55.664
1584600546.044,-14.160,17.090,21.484,-141.113,92.773
1584600546.048,18.555,27.344,29.785,-4.395,77.637
1584600546.052,55.176,32.715,36.621,182.617,59.082
1584600546.056,45.410,25.879,32.227,98.145,59.082
1584600546.060,-0.977,16.602,23.438,-118.164,22.461
1584600546.063,-10.254,19.531,25.391,-75.195,40.039
1584600546.067,26.855,29.297,26.367,137.695,-11.230
1584600546.071,27.344,28.809,22.461,123.047,-12.695
1584600546.075,-13.184,23.438,17.578,-93.262,20.508
1584600546.079,-11.230,25.391,16.113,-118.164,-2.930
1584600546.083,29.297,37.109,19.531,98.145,33.203
1584600546.087,35.645,40.527,20.996,162.109,91.797
1584600546.091,0.977,27.832,19.043,-30.273,81.055
1584600546.095,-13.184,22.949,19.531,-139.160,33.203
1584600546.099,24.414,29.785,26.367,42.969,34.668
1584600546.102,47.363,28.809,27.344,177.734,46.875
1584600546.106,23.438,23.438,25.879,34.180,78.613
1584600546.110,-10.742,20.020,25.391,-134.277,10.742
1584600546.114,5.859,21.484,29.785,-13.184,15.137
1584600546.118,39.551,24.414,31.250,181.641,107.422
1584600546.122,21.484,22.949,24.902,105.957,92.285
1584600546.126,-11.230,22.461,19.043,-110.352,18.066
1584600546.130,6.836,26.855,24.414,-71.289,8.789
1584600546.134,45.410,29.297,29.785,156.250,42.480
1584600546.138,42.480,26.367,29.297,156.250,-8.789
1584600546.142,1.953,20.020,23.926,-63.477,5.859
1584600546.145,0.000,22.949,26.367,-106.934,45.410
1584600546.149,42.480,33.203,34.668,103.027,49.805
1584600546.153,50.293,31.738,32.227,183.105,14.160
1584600546.157,11.719,25.879,27.344,-6.348,-1.465
1584600546.161,-4.883,22.949,25.391,-132.324,18.066
1584600546.165,34.180,31.738,28.320,36.621,-56.152
1584600546.169,57.617,35.645,32.715,186.523,-59.082
1584600546.173,30.273,24.902,30.273,54.688,-8.789
1584600546.177,-2.930,18.555,25.879,-124.512,42.969
1584600546.181,20.996,25.391,28.809,-24.414,72.754
1584600546.185,61.523,33.203,31.738,172.363,40.039
1584600546.188,47.363,29.785,29.785,111.816,39.062
1584600546.192,1.953,21.973,25.879,-100.586,92.285
1584600546.196,6.348,27.344,31.738,-79.102,34.180
1584600546.200,42.969,34.668,37.109,136.719,22.461
1584600546.204,39.062,29.297,31.738,154.297,43.945
1584600546.208,-0.488,25.391,26.367,-54.688,-3.418
1584600546.212,-15.137,25.391,22.949,-126.465,3.906
1584600546.216,18.555,28.809,28.809,72.754,36.133
1584600546.220,40.039,30.273,31.250,177.734,53.711
1584600546.224,13.184,23.926,26.367,5.859,48.828
1584600546.227,-12.695,20.020,26.855,-140.137,16.602
1584600546.231,24.902,28.320,32.227,13.672,-14.160
1584600546.235,52.734,32.715,35.156,175.781,-11.719
1584600546.239,14.648,24.414,28.320,59.570,-16.602
1584600546.243,-19.531,18.555,20.996,-130.859,-3.906
1584600546.247,9.277,24.414,26.855,-43.945,57.617
1584600546.251,50.293,35.156,34.668,173.828,85.449
1584600546.255,36.133,35.156,33.691,134.766,80.566
1584600546.259,-1.953,25.879,25.879,-86.914,35.645
1584600546.263,3.418,22.949,26.367,-96.680,9.766
1584600546.267,45.898,30.762,31.738,120.605,38.086
1584600546.270,51.758,32.227,28.809,168.945,18.066
1584600546.274,8.301,23.926,21.973,-40.039,-2.930
1584600546.278,-11.230,20.996,24.414,-123.047,43.457
1584600546.282,33.203,31.738,29.785,75.195,5.859
1584600546.286,57.617,32.715,28.809,184.570,-59.570
1584600546.290,21.484,22.949,26.367,24.414,-61.035
1584600546.294,-13.672,20.508,30.273,-130.371,-30.273
1584600546.298,13.184,24.902,36.621,5.859,-18.066
1584600546.302,43.945,28.809,33.691,185.059,12.207
1584600546.306,18.555,22.949,28.320,86.914,31.738
1584600546.310,-12.207,18.066,24.414,-121.582,33.691
1584600546.313,13.672,29.297,26.855,-57.617,-21.973
1584600546.317,53.223,35.645,32.715,160.645,-1.465
1584600546.321,38.574,30.273,29.297,135.742,29.297
1584600546.325,-0.977,22.949,24.414,-76.172,8.301
1584600546.329,4.395,21.484,25.879,-101.562,57.129
1584600546.333,51.270,28.809,30.273,112.305,62.988
1584600546.337,54.199,32.227,28.809,171.387,14.160
1584600546.341,8.789,25.391,25.879,-26.367,-15.625
1584600546.345,-3.418,23.926,27.344,-127.441,33.203
1584600546.349,31.250,30.273,30.762,56.152,30.762
1584600546.352,58.105,29.297,31.250,188.965,24.414
1584600546.356,37.109,25.879,26.855,38.574,72.266
1584600546.360,3.906,24.902,27.344,-126.953,82.031
1584600546.364,26.367,26.855,32.715,-8.789,41.992
1584600546.368,53.223,31.250,32.227,181.641,33.691
1584600546.372,30.273,29.297,29.785,100.586,0.488
1584600546.376,-7.324,24.414,25.391,-104.980,2.441
1584600546.380,4.883,30.762,30.273,-59.082,29.785
1584600546.384,42.969,36.133,33.691,150.879,12.695
1584600546.388,32.227,32.715,25.879,146.484,0.488
1584600546.392,-6.836,26.367,21.484,-73.730,-22.949
1584600546.395,-6.348,24.902,23.438,-124.512,12.207
1584600546.399,36.133,32.715,31.738,89.355,48.340
1584600546.403,48.828,37.598,38.574,178.223,12.207
1584600546.407,11.230,28.809,30.762,-10.742,-20.996
1584600546.411,-11.719,23.926,21.973,-142.578,7.324
1584600546.415,25.879,31.738,29.297,36.133,59.570
1584600546.419,57.129,34.668,33.203,198.242,41.504
1584600546.423,26.855,29.785,27.344,51.758,3.418
1584600546.427,-4.883,26.855,25.391,-129.883,1.953
1584600546.431,24.902,31.738,28.809,-20.020,9.277
1584600546.435,59.082,34.180,32.715,176.270,73.242
1584600546.438,39.551,29.785,30.273,107.910,94.727
1584600546.442,-0.977,26.367,23.926,-106.934,73.730
1584600546.446,2.930,28.320,23.438,-84.961,83.496
1584600546.450,45.410,30.762,28.320,134.766,83.496
1584600546.454,48.828,27.344,29.785,150.879,57.129
1584600546.458,9.766,22.461,24.902,-65.918,10.254
1584600546.462,0.000,26.367,20.508,-120.605,24.902
1584600546.466,35.156,33.691,21.973,82.520,40.527
1584600546.470,47.363,30.762,24.902,170.898,62.500
1584600546.474,5.371,22.461,20.996,-8.301,65.918
1584600546.477,-19.043,20.996,22.461,-143.555,41.504
1584600546.481,15.137,28.320,30.762,23.438,3.906
1584600546.485,44.922,31.738,30.762,191.406,7.812
1584600546.489,13.672,27.832,24.902,55.664,3.418
1584600546.493,-29.785,23.926,24.414,-150.879,29.785
1584600546.497,-5.859,26.367,30.762,-58.594,78.613
1584600546.501,36.621,25.391,37.109,150.391,19.043
1584600546.505,23.438,20.020,38.086,102.539,0.000
1584600546.509,-20.508,18.555,34.180,-107.910,22.461
1584600546.513,-14.648,22.949,36.621,-107.910,41.992
1584600546.517,27.832,28.809,39.551,102.051,43.945
1584600546.520,25.391,26.367,36.133,136.719,56.152
1584600546.524,-15.625,22.461,32.227,-68.848,40.527
1584600546.528,-26.367,25.391,27.832,-153.809,4.883
1584600546.532,9.766,29.785,31.250,38.086,44.922
1584600546.536,35.645,26.367,39.062,157.227,45.898
1584600546.540,5.371,18.555,34.668,3.418,-34.668
1584600546.544,-36.133,20.020,27.344,-153.320,-32.227
1584600546.548,-6.836,30.273,31.738,-16.602,6.836
1584600546.552,29.297,33.203,35.645,165.039,33.203
1584600546.556,5.859,22.461,29.785,63.965,33.203
1584600546.560,-24.902,14.160,29.785,-133.301,-9.766
1584600546.563,-12.695,23.438,33.691,-69.824,-3.418
1584600546.567,32.227,34.180,31.738,145.508,12.207
1584600546.571,31.738,30.762,26.367,125.488,0.977
1584600546.575,-12.695,25.391,20.508,-96.680,17.090
1584600546.579,-11.230,23.926,22.461,-119.629,37.598
1584600546.583,28.809,30.273,28.320,100.098,27.344
1584600546.587,37.598,34.180,26.855,160.645,-7.812
1584600546.591,2.441,27.832,20.996,-46.875,9.766
1584600546.595,-18.066,29.785,20.508,-143.066,-17.578
1584600546.599,21.973,39.551,27.344,53.711,-36.133
1584600546.602,45.898,38.574,30.762,175.293,0.488
1584600546.606,11.230,27.344,27.344,20.996,42.480
1584600546.610,-20.996,19.531,22.949,-146.484,17.090
1584600546.614,1.465,26.855,26.855,-22.949,-6.348
1584600546.618,26.367,28.809,33.691,162.598,26.367
1584600546.622,9.766,25.879,29.785,76.172,11.230
1584600546.626,-19.043,26.367,28.320,-126.465,10.742
1584600546.630,-4.395,28.320,35.156,-66.406,28.320
1584600546.634,32.227,27.832,37.598,149.902,27.832
1584600546.638,23.926,24.414,36.133,128.418,3.418
1584600546.642,-21.484,23.438,28.809,-94.238,-34.668
1584600546.645,-20.996,30.762,20.996,-135.742,-10.742
1584600546.649,29.297,41.016,21.973,84.961,36.621
1584600546.653,39.062,34.180,25.391,168.457,49.316
1584600546.657,-1.953,22.949,25.391,-22.461,16.602
1584600546.661,-26.367,17.578,26.855,-144.531,-3.906
1584600546.665,6.836,22.461,34.668,26.367,8.789
1584600546.669,39.062,30.273,38.086,174.316,55.176
1584600546.673,15.137,23.926,29.785,38.574,84.473
1584600546.677,-17.090,18.066,27.832,-143.066,50.781
1584600546.681,-3.418,21.973,30.273,-33.203,-12.207
1584600546.685,33.691,29.297,31.250,157.227,-3.418
1584600546.688,22.949,27.344,28.320,88.379,34.668
1584600546.692,-30.762,18.066,27.344,-117.188,29.297
1584600546.696,-21.973,19.531,34.668,-85.938,64.453
1584600546.700,23.438,27.344,38.086,134.766,25.879
1584600546.704,26.855,32.715,34.668,145.996,51.758
1584600546.708,-7.324,29.297,27.832,-73.242,70.801
1584600546.712,-18.066,22.949,26.855,-130.371,48.340
1584600546.716,26.855,25.391,31.738,88.867,17.090
1584600546.720,46.875,25.391,34.668,183.105,-10.254
1584600546.724,6.836,19.043,29.297,1.953,57.129
1584600546.727,-20.020,18.066,24.414,-146.973,34.668
1584600546.731,19.531,28.809,30.273,6.836,45.898
1584600546.735,47.852,30.273,31.738,180.176,61.523
1584600546.739,23.438,19.043,27.832,59.570,-2.930
1584600546.743,-7.812,13.672,26.855,-130.371,2.930
1584600546.747,11.719,24.414,28.320,-36.133,27.832
1584600546.751,45.410,35.645,29.785,167.480,33.203
1584600546.755,26.855,31.250,31.738,115.234,23.926
1584600546.759,-16.113,20.020,33.691,-102.539,9.277
1584600546.763,-13.184,18.066,32.715,-94.727,23.926
1584600546.767,38.574,23.926,35.156,129.883,-0.977
1584600546.770,47.852,19.043,33.691,163.086,65.430
1584600546.774,1.953,13.184,28.809,-48.828,63.965
1584600546.778,-15.137,20.508,28.320,-132.812,-8.789
1584600546.782,22.949,30.273,29.785,62.988,58.594
1584600546.786,39.551,31.250,26.855,168.945,54.688
1584600546.790,5.371,25.879,20.996,1.953,-17.578
1584600546.794,-16.113,23.438,22.461,-141.113,-0.977
1584600546.798,15.137,28.320,30.273,6.836,-18.066
1584600546.802,47.852,32.227,34.668,175.293,11.230
1584600546.806,23.438,26.855,32.227,64.453,22.949
1584600546.810,-15.137,20.508,27.832,-130.859,8.789
1584600546.813,8.789,23.926,26.367,-53.223,30.273
1584600546.817,50.781,29.785,30.273,169.434,45.898
1584600546.821,48.828,24.902,33.203,138.184,57.129
1584600546.825,-3.906,19.531,19.531,-96.191,82.520
1584600546.829,-15.137,22.461,17.090,-115.234,68.848
1584600546.833,37.109,30.273,26.367,115.234,8.789
1584600546.837,43.945,30.762,22.949,173.340,7.812
1584600546.841,6.836,22.949,19.531,-24.902,18.555
1584600546.845,-4.883,19.531,26.367,-122.559,39.551
1584600546.849,31.738,30.762,30.273,61.523,26.367
1584600546.852,50.781,37.109,29.297,189.453,21.484
1584600546.856,19.531,30.273,25.391,33.691,64.453
1584600546.860,-5.371,23.438,18.555,-126.465,70.801
1584600546.864,28.320,22.949,26.855,5.859,34.180
1584600546.868,54.688,26.855,33.203,181.641,15.137
1584600546.872,24.902,23.926,27.832,89.844,55.176
1584600546.876,-15.625,19.043,24.414,-115.723,48.828
1584600546.880,3.906,27.344,29.297,-59.082,-13.672
1584600546.884,55.176,39.062,31.738,166.992,-17.090
1584600546.888,50.781,34.180,24.414,145.508,13.672
1584600546.892,6.836,26.855,19.043,-84.473,5.859
1584600546.895,-0.977,31.250,21.484,-108.887,-18.066
1584600546.899,39.551,32.715,33.691,114.258,10.742
1584600546.903,49.316,26.367,38.086,187.988,62.012
1584600546.907,10.742,17.090,31.738,-12.695,80.566
1584600546.911,-8.789,15.137,30.762,-136.719,70.801
1584600546.915,19.043,25.879,33.203,39.551,25.391
1584600546.919,38.086,31.250,29.785,182.129,-5.859
1584600546.923,20.996,23.926,28.809,39.551,15.137
1584600546.927,0.488,17.090,32.715,-131.348,62.012
1584600546.931,22.949,23.926,37.109,-8.789,26.855
1584600546.935,51.270,32.715,37.598,180.176,-0.977
1584600546.938,29.297,28.320,30.762,106.445,64.453
1584600546.942,-10.254,21.973,25.391,-107.422,108.398
1584600546.946,1.953,23.438,29.297,-83.984,41.504
1584600546.950,40.527,29.297,35.156,139.648,10.254
1584600546.954,31.738,25.879,32.227,145.996,-1.953
1584600546.958,-5.859,21.973,26.855,-72.266,-8.301
1584600546.962,-6.348,28.320,21.973,-116.699,1.953
1584600546.966,36.621,34.668,25.879,88.379,-1.465
1584600546.970,50.293,30.273,33.203,166.504,51.270
1584600546.974,9.766,19.531,33.691,-8.789,6.348
1584600546.977,-15.137,16.113,33.203,-133.789,-35.645
1584600546.981,23.926,31.738,37.598,35.645,55.664
1584600546.985,48.340,39.551,38.574,197.754,104.492
1584600546.989,16.602,29.297,33.691,65.918,44.922
1584600546.993,-8.301,20.020,33.203,-123.047,18.066
1584600546.997,16.602,30.273,35.645,-21.973,52.734
1584600547.001,50.293,39.551,36.133,179.688,31.250
1584600547.005,39.551,28.809,33.691,125.000,-30.273
1584600547.009,0.488,21.484,28.809,-90.820,17.090
1584600547.013,5.371,26.367,28.809,-88.379,52.734
1584600547.017,44.922,33.691,33.203,131.348,35.645
1584600547.020,42.969,30.762,31.738,165.039,49.316
1584600547.024,5.859,22.949,26.367,-45.410,17.090
1584600547.028,-0.488,23.926,23.438,-118.652,18.066
1584600547.032,33.691,30.273,30.273,80.078,90.332
1584600547.036,48.828,29.785,33.691,186.035,74.707
1584600547.040,15.137,24.414,28.320,16.602,31.738
1584600547.044,-11.719,24.902,26.855,-126.953,39.062
1584600547.048,25.391,34.668,29.785,15.625,5.859
1584600547.052,55.176,41.016,29.297,180.176,-5.371
1584600547.056,30.273,36.621,24.414,67.871,49.805
1584600547.060,-13.672,34.180,18.555,-134.766,73.730
1584600547.063,0.488,38.086,26.367,-52.734,40.527
1584600547.067,42.480,35.645,37.109,166.016,42.480
1584600547.071,31.250,26.367,31.250,132.324,31.738
1584600547.075,-6.836,18.555,25.391,-86.426,9.277
1584600547.079,-11.230,21.484,26.367,-99.121,-2.441
1584600547.083,27.344,33.691,29.297,111.328,8.301
1584600547.087,40.039,36.621,25.391,164.551,65.430
1584600547.091,5.371,30.273,19.531,-37.598,65.918
1584600547.095,-0.977,31.250,20.508,-136.230,38.086
1584600547.099,33.691,36.621,23.438,55.664,39.551
1584600547.102,42.969,36.621,20.508,174.316,57.129
1584600547.106,11.719,30.273,18.066,9.766,36.133
1584600547.110,-12.695,23.926,21.973,-139.648,45.898
1584600547.114,20.508,25.391,31.250,11.230,18.066
1584600547.118,61.035,27.344,35.645,201.660,37.598
1584600547.122,39.062,20.508,28.320,101.074,49.316
1584600547.126,-12.207,17.578,21.973,-114.746,22.461
1584600547.130,2.930,24.902,24.414,-59.570,28.320
1584600547.134,45.898,32.715,27.344,158.203,-6.836
1584600547.138,39.551,30.762,24.414,137.207,8.789
1584600547.142,-6.348,28.809,20.508,-81.543,9.766
1584600547.145,-16.602,39.551,22.461,-105.957,20.996
1584600547.149,28.809,41.016,27.832,108.887,7.812
1584600547.153,44.434,28.320,31.738,174.805,-8.789
1584600547.157,10.254,15.625,32.715,-16.602,-24.902
1584600547.161,-9.277,13.184,30.762,-130.371,-40.527
1584600547.165,29.297,22.949,33.203,54.199,23.926
1584600547.169,49.805,28.320,37.109,198.730,90.820
1584600547.173,10.742,21.484,29.785,49.316,79.102
1584600547.177,-20.508,19.531,22.949,-135.254,31.250
1584600547.181,13.672,29.785,27.832,-27.832,33.691
1584600547.185,57.617,36.621,30.273,169.434,24.902
1584600547.188,41.504,29.785,27.832,97.656,-5.859
1584600547.192,-5.371,16.113,28.809,-119.141,20.996
1584600547.196,11.719,17.578,36.133,-71.289,42.480
1584600547.200,64.453,26.367,44.922,159.180,53.223
1584600547.204,41.504,21.484,40.039,147.949,43.945
1584600547.208,-10.254,15.137,28.320,-85.449,-31.250
1584600547.212,-4.883,24.414,27.832,-126.953,-12.207
1584600547.216,39.551,37.109,30.762,95.703,-1.953
1584600547.220,52.734,34.180,25.391,174.805,18.066
1584600547.224,14.160,20.020,20.020,-16.113,17.578
1584600547.227,-15.625,16.113,22.461,-140.625,-18.555
1584600547.231,17.578,22.461,28.320,31.738,2.930
1584600547.235,52.734,25.391,31.738,188.477,50.293
1584600547.239,32.227,22.949,25.879,56.641,34.668
1584600547.243,2.930,20.996,19.043,-129.883,12.207
1584600547.247,11.719,26.367,22.461,-24.414,66.406
1584600547.251,38.086,28.320,26.855,176.270,74.707
1584600547.255,28.320,22.461,27.344,113.770,-12.695
1584600547.259,-12.207,20.508,25.879,-106.934,-29.297
1584600547.263,-10.254,25.879,22.949,-93.750,22.461
1584600547.267,42.480,33.203,21.973,136.230,34.668
1584600547.270,49.805,33.691,23.926,157.227,10.742
1584600547.274,1.953,26.855,24.414,-66.895,-7.324
1584600547.278,-11.719,25.391,21.973,-129.395,50.293
1584600547.282,26.855,29.785,26.855,75.684,46.387
1584600547.286,43.945,33.203,27.344,173.340,54.688
1584600547.290,9.766,27.344,21.484,3.418,34.180
1584600547.294,-9.766,21.973,22.461,-133.789,2.441
1584600547.298,28.320,29.297,25.391,13.672,62.012
1584600547.302,58.105,34.668,33.203,177.734,45.410
1584600547.306,26.855,23.438,31.250,74.219,25.879
1584600547.310,-15.625,12.695,26.367,-122.559,25.391
1584600547.313,7.324,22.949,27.832,-53.223,6.348
1584600547.317,54.199,34.180,29.785,159.668,85.449
1584600547.321,43.457,27.832,26.855,119.629,98.145
1584600547.325,-7.324,17.090,22.461,-100.586,17.578
1584600547.329,-7.324,20.020,26.855,-94.238,41.016
1584600547.333,36.621,29.785,35.645,125.488,73.242
1584600547.337,37.598,25.879,26.855,159.668,68.848
1584600547.341,2.441,19.043,12.207,-44.922,79.102
1584600547.345,-1.465,22.949,17.578,-133.301,30.762
1584600547.349,36.133,32.227,27.832,62.500,21.973
1584600547.352,50.781,31.250,26.855,190.430,45.898
1584600547.356,22.461,22.949,23.438,25.879,49.316
1584600547.360,0.488,19.531,24.414,-132.324,19.531
1584600547.364,29.297,23.926,28.809,11.719,-29.297
1584600547.368,53.711,25.879,32.715,188.965,9.766
1584600547.372,25.879,21.484,29.785,79.102,13.672
1584600547.376,-17.578,19.043,20.996,-130.859,35.156
1584600547.380,2.930,28.320,24.414,-58.594,31.250
1584600547.384,49.805,38.574,28.320,158.691,35.645
1584600547.388,45.410,31.738,31.250,147.461,18.066
1584600547.392,11.719,20.508,31.738,-72.754,-42.480
1584600547.395,7.324,23.438,25.879,-114.746,-18.066
1584600547.399,40.527,36.621,26.367,107.910,47.852
1584600547.403,45.898,40.527,20.996,170.898,38.574
1584600547.407,-1.953,31.250,14.648,-31.738,2.930
1584600547.411,-20.020,25.879,22.949,-135.742,5.371
1584600547.415,24.902,27.832,33.691,46.875,46.875
1584600547.419,42.969,26.855,32.715,183.105,69.336
1584600547.423,12.207,20.996,25.391,35.645,25.391
1584600547.427,-11.230,15.625,23.438,-133.789,43.945
1584600547.431,13.184,22.461,27.344,-6.836,16.602
1584600547.435,36.133,30.762,27.344,172.363,29.785
1584600547.438,16.602,22.461,24.414,85.449,11.230
1584600547.442,-17.578,13.672,24.414,-115.723,-9.277
1584600547.446,-1.465,21.973,25.391,-71.289,39.062
1584600547.450,39.062,28.809,27.344,144.531,39.551
1584600547.454,36.621,31.250,26.367,146.484,20.508
1584600547.458,-10.254,25.879,18.555,-74.707,8.789
1584600547.462,-25.879,20.020,21.484,-127.930,2.441
1584600547.466,19.531,27.344,29.785,83.984,17.090
1584600547.470,39.062,28.320,32.715,164.062,21.973
1584600547.474,-3.418,19.531,27.832,-20.508,5.371
1584600547.477,-25.879,17.578,22.461,-141.602,65.430
1584600547.481,19.531,29.785,24.902,30.762,62.012
1584600547.485,51.270,36.621,25.879,189.941,0.000
1584600547.489,21.484,28.809,22.949,54.688,59.082
1584600547.493,-17.578,21.484,20.996,-136.230,70.801
1584600547.497,2.930,28.320,27.344,-34.180,4.883
1584600547.501,40.527,37.109,27.832,165.039,13.672
1584600547.505,19.043,31.250,21.973,96.680,22.461
1584600547.509,-15.625,25.879,14.160,-115.723,7.812
1584600547.513,4.395,31.738,12.207,-87.402,-5.371
1584600547.517,35.156,36.133,23.438,134.277,49.316
1584600547.520,24.414,30.762,30.273,148.438,78.125
1584600547.524,-12.207,19.531,25.879,-62.500,54.688
1584600547.528,-7.812,14.648,27.344,-120.117,31.250
1584600547.532,43.945,23.438,35.645,93.750,0.488
1584600547.536,52.734,25.879,32.715,183.594,14.648
1584600547.540,9.277,19.531,21.484,-12.207,47.363
1584600547.544,-9.766,20.020,15.137,-147.461,17.578
1584600547.548,29.785,32.227,20.996,21.484,25.879
1584600547.552,55.664,35.156,30.762,187.988,4.395
1584600547.556,21.973,24.414,25.391,58.105,5.371
1584600547.560,-19.043,16.113,17.090,-134.766,-4.395
1584600547.563,2.930,20.996,22.949,-37.598,-30.273
1584600547.567,43.457,27.344,31.250,174.316,56.641
1584600547.571,33.691,23.438,32.227,135.254,52.734
1584600547.575,0.488,17.090,23.926,-83.984,16.602
1584600547.579,9.277,18.066,25.879,-83.496,43.945
1584600547.583,51.270,27.832,35.156,134.277,34.180
1584600547.587,43.457,34.668,32.715,162.109,13.672
1584600547.591,-8.301,32.227,22.461,-48.828,-4.883
1584600547.595,-13.672,33.691,21.484,-132.812,-27.832
1584600547.599,30.273,38.086,27.344,69.824,-25.391
1584600547.602,51.758,34.668,25.879,188.965,25.879
1584600547.606,22.949,24.902,20.996,28.809,32.715
1584600547.610,-7.812,21.484,18.555,-128.906,16.113
1584600547.614,19.043,29.785,24.414,-1.953,50.293
1584600547.618,48.340,32.227,26.367,172.363,29.785
1584600547.622,24.414,26.855,23.438,76.172,57.617
1584600547.626,-8.789,21.973,23.926,-126.465,101.074
1584600547.630,17.090,26.855,30.273,-52.734,43.945
1584600547.634,54.199,31.250,30.762,165.527,3.418
1584600547.638,29.297,24.902,22.949,125.977,7.324
1584600547.642,-10.254,20.020,18.555,-93.750,10.742
1584600547.645,-0.488,27.344,24.902,-101.562,21.484
1584600547.649,44.434,35.156,29.785,123.047,71.289
1584600547.653,51.758,29.785,25.879,178.223,67.871
1584600547.657,6.348,22.461,21.973,-24.902,28.320
1584600547.661,-11.230,22.461,18.066,-134.766,37.598
1584600547.665,28.320,32.227,24.414,47.852,29.297
1584600547.669,50.293,32.227,31.250,184.570,0.977
1584600547.673,24.414,24.902,24.414,28.320,10.254
1584600547.677,5.859,21.973,20.508,-135.254,36.621
1584600547.681,28.809,24.902,32.715,0.977,15.137
1584600547.685,49.316,29.785,41.504,189.453,20.020
1584600547.688,24.902,22.949,36.621,90.332,25.879
1584600547.692,-18.066,18.066,27.832,-124.512,7.324
1584600547.696,-6.348,24.414,25.879,-69.336,47.852
1584600547.700,39.551,35.645,31.738,157.715,63.477
1584600547.704,37.109,33.691,32.715,149.902,51.758
1584600547.708,-3.418,20.996,25.391,-74.707,22.949
1584600547.712,-2.930,21.973,23.438,-114.746,-3.906
1584600547.716,37.109,32.227,28.320,91.309,24.414
1584600547.720,40.039,36.133,28.809,163.086,85.938
1584600547.724,-0.977,28.809,24.414,-19.531,51.270
1584600547.727,-18.555,22.949,23.926,-128.906,24.902
1584600547.731,23.438,28.809,30.273,45.898,-10.254
1584600547.735,50.293,31.738,31.738,186.035,-47.852
1584600547.739,14.160,22.949,29.785,41.504,12.695
1584600547.743,-16.602,15.625,28.320,-134.766,-0.488
1584600547.747,16.113,24.414,32.715,-17.578,-0.977
1584600547.751,49.316,31.738,37.109,170.898,15.625
1584600547.755,23.438,26.367,28.320,97.168,14.648
1584600547.759,-11.230,20.020,14.648,-110.840,50.781
1584600547.763,5.371,24.414,16.602,-83.984,38.086
1584600547.767,51.758,32.715,27.344,139.648,16.113
1584600547.770,47.852,27.832,30.273,155.762,20.020
1584600547.774,-6.348,20.508,29.785,-64.453,22.949
1584600547.778,-12.207,25.391,31.738,-126.953,25.879
1584600547.782,32.715,36.133,33.203,88.867,16.113
1584600547.786,38.086,35.156,30.273,182.129,1.953
1584600547.790,-0.977,21.973,29.297,-9.766,-17.578
1584600547.794,-13.184,15.137,31.250,-138.672,-28.809
1584600547.798,23.438,23.438,35.645,27.832,11.719
1584600547.802,48.340,28.320,32.715,177.734,27.832
1584600547.806,18.555,20.508,23.926,44.922,52.246
1584600547.810,-14.648,17.578,22.949,-147.461,47.363
1584600547.813,10.254,22.461,30.273,-44.434,11.719
1584600547.817,42.969,28.320,34.668,169.922,33.691
1584600547.821,13.672,25.391,24.902,107.910,33.203
1584600547.825,-24.414,18.066,19.043,-113.770,20.508
1584600547.829,-5.371,24.414,22.949,-89.844,92.285
1584600547.833,44.434,33.691,25.391,134.277,88.379
1584600547.837,59.082,30.762,31.250,171.387,60.547
1584600547.841,14.648,24.414,28.809,-41.992,43.945
1584600547.845,-1.953,25.879,21.973,-132.812,11.719
1584600547.849,34.180,32.227,23.438,65.918,20.508
1584600547.852,45.898,34.180,26.367,173.340,43.945
1584600547.856,11.230,29.297,25.879,10.742,41.016
1584600547.860,-13.672,27.832,22.949,-134.277,18.066
1584600547.864,24.902,33.691,26.855,12.695,1.953
1584600547.868,58.594,35.645,27.344,184.082,-1.953
1584600547.872,35.156,26.367,24.414,78.613,-38.086
1584600547.876,-6.348,17.090,24.902,-121.094,-20.508
1584600547.880,11.230,22.461,31.250,-57.617,16.113
1584600547.884,48.828,31.250,37.598,156.738,34.668
1584600547.888,35.156,32.715,35.156,125.977,64.453
1584600547.892,-7.324,23.926,28.320,-96.680,46.875
1584600547.895,-4.883,22.461,27.344,-108.398,23.438
1584600547.899,36.621,29.785,34.180,112.793,10.742
1584600547.903,46.387,25.879,34.668,172.852,20.508
1584600547.907,13.184,19.531,27.832,-26.855,23.926
1584600547.911,-14.160,20.996,23.438,-140.137,12.207
1584600547.915,20.996,32.715,30.273,46.387,44.922
1584600547.919,51.270,35.645,31.250,185.547,26.855
1584600547.923,15.137,26.367,22.949,33.691,19.043
1584600547.927,-17.090,20.996,22.949,-134.766,61.035
1584600547.931,13.672,25.391,31.250,-5.859,57.617
1584600547.935,43.945,32.715,35.645,178.223,39.551
1584600547.938,21.484,27.344,32.227,81.543,5.859
1584600547.942,-14.160,20.020,24.902,-127.441,-20.508
1584600547.946,11.230,27.344,30.762,-62.988,47.852
1584600547.950,59.082,34.668,39.551,163.086,68.359
1584600547.954,39.551,30.273,32.227,143.555,10.254
1584600547.958,-17.090,23.438,21.973,-91.309,12.207
1584600547.962,-19.043,28.809,20.996,-122.070,40.527
1584600547.966,31.738,39.062,30.762,106.934,-2.441
1584600547.970,47.852,37.109,35.645,167.480,-27.832
1584600547.974,5.859,27.832,27.344,-25.879,14.648
1584600547.977,-14.160,24.902,24.902,-134.277,42.480
1584600547.981,25.391,31.250,33.691,44.922,36.133
1584600547.985,46.875,32.227,33.691,189.453,54.199
1584600547.989,16.113,27.344,24.902,37.598,117.188
1584600547.993,-14.648,27.832,20.508,-148.438,101.562
1584600547.997,1.465,29.785,24.414,-28.809,32.715
1584600548.001,37.109,33.691,27.832,172.852,-28.320
1584600548.005,33.691,33.203,25.391,100.098,-5.371
1584600548.009,-8.301,24.414,21.484,-113.770,10.254
1584600548.013,-5.371,28.320,20.996,-81.055,-10.742
1584600548.017,40.039,36.133,24.902,139.648,28.809
1584600548.020,36.621,30.762,22.461,141.602,31.250
1584600548.024,4.395,24.902,16.602,-70.801,40.039
1584600548.028,6.836,27.344,19.043,-115.723,16.602
1584600548.032,42.480,33.203,28.320,106.934,7.324
1584600548.036,51.270,27.832,30.273,184.570,35.156
1584600548.040,11.230,23.926,22.949,-8.301,23.438
1584600548.044,-11.230,23.438,19.531,-141.113,32.227
1584600548.048,21.973,32.715,21.484,18.066,91.309
1584600548.052,51.758,41.016,21.973,186.035,101.074
1584600548.056,28.320,32.227,23.438,69.336,52.734
1584600548.060,-14.160,25.391,27.344,-125.977,57.617
1584600548.063,-0.977,27.832,31.738,-40.039,32.715
1584600548.067,37.109,31.738,32.227,171.387,27.832
1584600548.071,38.574,29.297,26.855,125.977,33.691
1584600548.075,-0.488,29.297,23.438,-93.750,62.500
1584600548.079,-9.277,32.715,24.902,-93.750,52.246
1584600548.083,33.691,37.109,29.297,120.605,23.438
1584600548.087,43.457,39.062,24.902,146.484,51.758
1584600548.091,9.277,30.273,20.508,-63.965,25.879
1584600548.095,-0.488,26.367,24.414,-132.324,38.086
1584600548.099,28.809,28.320,33.691,74.219,2.930
1584600548.102,37.598,25.879,34.668,186.035,39.551
1584600548.106,2.930,20.508,29.297,7.812,136.230
1584600548.110,-26.367,15.137,23.926,-146.484,89.844
1584600548.114,7.812,21.973,23.438,2.441,39.551
1584600548.118,44.434,28.809,24.902,167.480,53.223
1584600548.122,27.344,24.414,20.508,57.129,13.672
1584600548.126,-14.648,17.578,17.578,-135.742,14.648
1584600548.130,-5.371,20.508,24.902,-48.340,43.945
1584600548.134,31.738,26.367,35.156,165.527,-27.344
1584600548.138,20.996,23.438,34.668,120.117,-30.762
1584600548.142,-26.367,16.602,21.973,-106.445,2.441
1584600548.145,-18.555,21.484,20.020,-104.004,-20.508
1584600548.149,40.039,30.273,26.855,126.465,13.184
1584600548.153,39.062,27.832,27.344,170.410,-19.531
1584600548.157,-11.230,20.020,23.926,-38.574,-7.324
1584600548.161,-18.555,18.066,19.531,-135.254,49.805
1584600548.165,36.133,33.203,23.438,63.965,-3.906
1584600548.169,57.129,40.527,28.809,192.383,31.738
1584600548.173,18.066,29.785,27.832,30.762,48.828
1584600548.177,-9.766,23.926,28.320,-126.953,-28.809
1584600548.181,22.949,26.367,38.574,11.230,4.395
1584600548.185,51.758,25.391,42.969,185.059,70.801
1584600548.188,29.297,27.832,30.762,85.449,59.082
1584600548.192,-0.488,28.809,20.020,-120.117,27.832
1584600548.196,9.766,29.297,20.996,-69.336,13.184
1584600548.200,48.828,37.109,26.367,149.902,-7.324
1584600548.204,50.781,35.645,27.344,148.926,17.090
1584600548.208,5.371,23.926,23.438,-65.430,38.574
1584600548.212,0.488,26.855,23.926,-104.492,19.043
1584600548.216,44.434,39.062,28.320,111.328,37.598
1584600548.220,51.270,36.621,28.320,168.945,13.672
1584600548.224,9.766,24.902,22.949,-38.574,23.926
1584600548.227,-11.719,23.926,22.461,-140.137,29.297
1584600548.231,24.902,33.691,26.855,51.270,18.555
1584600548.235,48.828,36.621,29.297,194.824,100.586
1584600548.239,12.207,22.949,30.762,47.363,92.285
1584600548.243,-18.066,11.719,32.227,-125.977,7.812
1584600548.247,15.625,21.484,37.598,-6.836,-20.020
1584600548.251,45.898,29.297,35.156,172.363,13.184
1584600548.255,25.879,25.879,20.996,87.402,61.523
1584600548.259,-11.719,20.996,17.090,-119.629,25.391
1584600548.263,2.930,25.879,24.902,-75.684,-20.508
1584600548.267,50.781,35.156,27.832,151.855,-24.902
1584600548.270,48.828,32.227,24.902,154.297,-3.418
1584600548.274,7.324,22.461,22.949,-65.918,-13.184
1584600548.278,8.789,22.949,27.832,-110.352,-13.672
1584600548.282,42.969,31.250,27.344,99.121,55.664
1584600548.286,35.645,30.273,22.461,169.922,35.645
1584600548.290,4.395,23.926,18.555,-21.484,7.324
1584600548.294,-2.441,23.926,13.672,-135.254,-21.484
1584600548.298,31.738,31.738,16.113,36.621,-6.836
1584600548.302,47.852,32.227,22.461,186.523,51.758
1584600548.306,18.555,21.973,22.949,55.664,24.414
1584600548.310,-0.977,18.555,20.996,-122.559,-12.695
1584600548.313,22.461,23.926,28.320,-16.602,14.160
1584600548.317,41.016,25.391,32.227,176.758,101.562
1584600548.321,19.043,21.484,27.832,104.004,104.980
1584600548.325,-13.184,17.578,25.879,-108.887,27.344
1584600548.329,6.348,20.996,26.367,-81.543,-2.930
1584600548.333,59.570,27.344,28.809,144.531,42.969
1584600548.337,52.734,22.461,31.250,163.574,72.266
1584600548.341,-8.789,10.254,28.809,-52.734,24.414
1584600548.345,-20.508,11.719,28.809,-130.371,-0.488
1584600548.349,32.227,25.391,33.691,72.266,31.738
1584600548.352,54.199,27.832,31.738,183.105,29.785
1584600548.356,20.996,20.020,24.902,15.625,15.137
1584600548.360,-2.930,14.160,25.879,-125.000,-2.441
1584600548.364,25.391,21.973,32.227,27.344,29.297
1584600548.368,40.039,26.855,32.715,189.941,53.711
1584600548.372,8.789,19.043,27.344,71.777,36.621
1584600548.376,-19.043,16.113,23.926,-126.465,13.672
1584600548.380,12.207,26.855,25.879,-47.363,15.625
1584600548.384,57.617,36.621,26.367,172.363,88.867
1584600548.388,42.480,27.344,25.879,132.324,83.984
1584600548.392,-2.441,17.090,27.344,-84.473,43.457
1584600548.395,4.395,21.973,30.762,-87.402,33.203
1584600548.399,47.852,26.367,35.156,124.512,57.129
1584600548.403,41.504,27.344,29.297,157.715,18.066
1584600548.407,0.000,24.414,21.484,-50.781,9.766
1584600548.411,-10.254,23.438,22.949,-131.348,43.457
1584600548.415,36.133,36.133,26.855,82.520,47.363
1584600548.419,58.594,39.062,23.926,207.520,44.434
1584600548.423,20.508,27.344,23.438,23.926,45.410
1584600548.427,-13.672,21.484,26.367,-138.184,41.504
1584600548.431,16.113,27.832,32.227,9.277,21.484
1584600548.435,54.688,33.691,34.180,195.801,24.414
1584600548.438,36.133,31.250,29.297,97.656,24.414
1584600548.442,-0.977,27.344,22.461,-109.863,8.789
1584600548.446,15.137,29.785,22.949,-44.922,1.953
1584600548.450,55.664,33.203,29.297,172.363,35.156
1584600548.454,51.270,26.855,31.250,151.855,90.820
1584600548.458,9.766,20.996,23.438,-69.336,78.125
1584600548.462,-1.465,27.832,24.902,-98.633,36.133
1584600548.466,29.785,34.180,29.297,99.121,16.113
1584600548.470,41.992,32.227,25.391,154.785,7.812
1584600548.474,17.090,26.367,20.508,-25.391,-45.898
1584600548.477,4.395,24.902,18.066,-124.512,-7.812
1584600548.481,31.250,27.832,28.320,57.617,73.730
1584600548.485,51.270,26.855,35.156,198.730,130.371
1584600548.489,22.949,19.043,26.855,48.828,94.727
1584600548.493,-16.602,13.672,20.508,-128.418,1.465
1584600548.497,4.395,19.531,27.832,-9.766,35.645
1584600548.501,49.316,27.832,31.250,181.641,19.531
1584600548.505,32.715,25.391,24.414,97.168,-25.879
1584600548.509,-15.625,22.461,20.020,-126.465,9.277
1584600548.513,-0.977,31.738,26.367,-79.590,47.363
1584600548.517,36.133,37.598,35.156,145.020,45.898
1584600548.520,19.531,30.762,29.785,141.113,27.832
1584600548.524,-13.184,21.973,19.043,-73.242,67.383
1584600548.528,-4.395,26.367,19.043,-107.910,40.039
1584600548.532,32.715,37.109,25.391,104.980,23.926
1584600548.536,37.598,33.203,25.879,175.293,40.039
1584600548.540,5.859,19.531,26.367,-8.789,20.996
1584600548.544,-4.395,15.625,27.832,-123.535,2.930
1584600548.548,27.344,27.344,32.227,39.551,-21.973
1584600548.552,41.992,34.180,32.715,180.664,13.184
1584600548.556,10.254,28.320,23.926,39.551,21.973
1584600548.560,-21.973,26.367,20.020,-147.949,9.277
1584600548.563,9.277,35.645,22.461,-27.344,58.594
1584600548.567,57.617,39.062,22.949,183.594,1.953
1584600548.571,40.039,31.250,21.973,118.652,15.137
1584600548.575,-6.836,24.414,19.531,-102.051,76.172
1584600548.579,6.348,29.785,23.926,-77.637,36.621
1584600548.583,56.152,38.574,30.762,148.438,45.898
1584600548.587,48.828,30.273,26.367,163.086,45.410
1584600548.591,-5.371,19.043,22.949,-55.664,45.410
1584600548.595,-8.301,23.926,24.414,-113.770,46.387
1584600548.599,31.250,34.180,28.320,90.820,4.395
1584600548.602,42.480,36.133,25.879,165.039,13.184
1584600548.606,9.277,30.762,21.973,-15.137,-3.418
1584600548.610,-13.184,26.855,21.973,-137.695,-43.945
1584600548.614,25.879,35.156,25.391,20.996,-14.160
1584600548.618,50.293,38.574,28.320,179.688,40.527
1584600548.622,23.926,29.785,28.809,67.871,67.383
1584600548.626,-17.578,21.973,31.738,-123.535,54.688
1584600548.630,-3.906,27.344,34.180,-42.969,46.387
1584600548.634,40.527,34.180,35.156,175.293,40.039
1584600548.638,31.250,29.297,32.227,134.766,16.602
1584600548.642,-4.883,19.043,26.367,-88.379,21.484
1584600548.645,-2.441,21.973,26.367,-94.238,0.977
1584600548.649,37.109,31.250,28.320,124.512,39.551
1584600548.653,43.457,29.785,28.320,163.574,56.641
1584600548.657,9.766,21.973,26.367,-38.086,-31.738
1584600548.661,-6.836,20.996,22.949,-125.488,20.020
1584600548.665,22.949,34.180,25.391,66.895,79.590
1584600548.669,46.387,39.551,28.809,186.523,34.668
1584600548.673,20.996,28.320,22.949,27.344,45.410
1584600548.677,-4.395,26.855,20.508,-127.930,18.555
1584600548.681,21.484,35.156,24.414,1.953,-16.113
1584600548.685,47.852,35.156,29.297,181.152,53.711
1584600548.688,27.832,26.367,29.785,83.984,98.145
1584600548.692,-7.812,17.578,25.391,-125.000,79.590
1584600548.696,8.301,22.461,25.879,-60.547,47.852
1584600548.700,59.570,34.180,26.367,163.574,59.082
1584600548.704,51.758,34.180,22.949,138.184,92.773
1584600548.708,-1.953,25.391,22.461,-92.285,16.113
1584600548.712,-4.883,25.879,28.809,-109.375,46.875
1584600548.716,42.969,31.250,31.250,117.676,94.238
1584600548.720,46.875,24.414,33.203,186.035,34.180
1584600548.724,1.465,14.160,35.156,-16.602,22.461
1584600548.727,-16.602,17.578,30.273,-130.371,25.879
1584600548.731,23.926,30.273,29.297,52.246,78.613
1584600548.735,48.340,36.621,32.715,184.082,5.371
1584600548.739,13.672,32.227,26.367,32.715,-43.945
1584600548.743,-12.207,24.902,18.066,-140.137,50.293
1584600548.747,17.090,29.297,23.926,-6.348,23.926
1584600548.751,45.898,32.227,27.344,181.641,-16.113
1584600548.755,22.461,24.902,24.902,90.820,-14.160
1584600548.759,-15.625,18.066,23.438,-109.375,-3.906
1584600548.763,0.000,21.484,28.320,-54.688,4.883
1584600548.767,38.574,29.785,31.738,159.180,12.695
1584600548.770,31.250,27.832,28.320,137.207,55.664
1584600548.774,-6.836,21.484,20.996,-77.148,51.758
1584600548.778,3.418,24.902,18.555,-105.957,-26.855
1584600548.782,51.758,31.738,28.809,114.746,14.160
1584600548.786,53.223,30.273,31.738,186.035,59.082
1584600548.790,13.184,23.926,20.020,-18.066,49.316
1584600548.794,-6.348,27.832,11.719,-138.184,42.480
1584600548.798,22.461,34.668,21.484,31.250,44.434
1584600548.802,43.457,36.133,30.762,177.246,66.406
1584600548.806,11.719,27.832,22.949,39.551,14.648
1584600548.810,-19.531,17.578,18.066,-138.184,3.418
1584600548.813,14.648,25.879,25.879,-22.461,51.270
1584600548.817,48.828,35.645,27.832,168.945,75.195
1584600548.821,24.414,29.785,21.484,98.145,53.223
1584600548.825,-12.695,20.508,19.043,-115.234,31.738
1584600548.829,-1.465,21.973,21.484,-81.055,51.758
1584600548.833,46.387,26.367,27.832,144.531,43.945
1584600548.837,47.852,26.367,27.344,157.715,34.668
1584600548.841,2.930,20.508,17.578,-65.918,9.277
1584600548.845,-0.977,23.438,19.043,-135.254,34.180
1584600548.849,41.992,34.668,26.855,86.426,75.684
1584600548.852,46.875,35.645,22.949,188.477,34.180
1584600548.856,-2.441,29.297,16.113,-8.301,-8.301
1584600548.860,-25.879,23.438,19.043,-146.484,12.695
1584600548.864,16.113,27.344,27.832,25.879,35.156
1584600548.868,50.781,29.785,32.227,190.430,14.160
1584600548.872,28.809,21.484,31.250,67.383,42.480
1584600548.876,-6.348,13.672,29.785,-121.094,6.348
1584600548.880,13.184,19.531,33.691,-39.062,-48.828
1584600548.884,47.363,21.973,37.598,168.457,5.371
1584600548.888,30.762,17.578,32.227,117.188,47.852
1584600548.892,-7.812,17.090,27.832,-105.957,58.105
1584600548.895,-1.465,26.367,29.297,-92.773,57.617
1584600548.899,39.062,33.203,31.738,130.859,56.641
1584600548.903,47.363,34.180,35.156,165.527,43.945
1584600548.907,9.766,28.320,34.180,-45.898,7.812
1584600548.911,-7.324,26.367,27.344,-125.488,25.879
1584600548.915,33.691,34.180,27.832,78.125,11.230
1584600548.919,62.012,33.203,30.273,193.848,18.066
1584600548.923,33.691,21.973,30.762,27.344,24.414
1584600548.927,7.324,20.508,28.809,-123.047,6.348
1584600548.931,29.297,32.715,28.809,12.695,31.738
1584600548.935,47.363,40.039,33.203,175.781,0.000
1584600548.938,22.461,33.203,27.344,68.848,6.836
1584600548.942,-13.184,22.949,22.461,-126.953,28.809
1584600548.946,16.602,27.344,28.809,-40.039,21.484
1584600548.950,64.453,35.645,31.250,176.758,27.344
1584600548.954,37.598,32.227,28.809,136.719,21.484
1584600548.958,-14.160,19.531,23.438,-89.355,28.320
1584600548.962,-7.812,22.461,21.973,-109.863,-3.906
1584600548.966,30.762,33.203,27.832,110.352,33.203
1584600548.970,36.133,27.344,32.227,168.457,50.781
1584600548.974,-3.906,19.043,29.297,-27.832,11.230
1584600548.977,-19.531,22.461,25.391,-128.906,45.898
1584600548.981,24.414,32.715,30.762,60.547,27.344
1584600548.985,44.922,33.203,31.738,195.801,52.246
1584600548.989,9.766,21.484,23.926,38.086,82.520
1584600548.993,-13.184,17.090,19.043,-133.789,20.020
1584600548.997,24.902,32.227,24.414,-4.883,58.105
1584600549.001,60.059,39.062,26.367,186.035,67.871
1584600549.005,27.832,26.367,24.414,90.820,48.828
1584600549.009,-22.949,16.602,26.367,-122.070,99.609
1584600549.013,1.953,19.531,33.691,-58.594,34.668
1584600549.017,42.969,29.297,34.668,157.227,-9.766
1584600549.020,23.438,30.273,25.879,128.418,37.598
1584600549.024,-10.742,22.461,22.461,-91.797,20.020
1584600549.028,2.441,27.832,27.832,-108.398,-20.996
1584600549.032,49.316,37.598,36.621,115.234,6.348
1584600549.036,47.363,33.691,33.203,173.340,69.824
1584600549.040,2.441,24.414,28.320,-15.625,75.195
1584600549.044,-14.160,21.973,34.180,-117.676,51.758
1584600549.048,26.855,27.344,38.086,54.688,10.254
1584600549.052,50.293,34.180,35.156,176.270,-7.812
1584600549.056,21.973,32.227,28.320,29.297,-35.156
1584600549.060,-11.719,23.926,24.902,-139.160,-29.297
1584600549.063,10.254,27.344,31.738,-13.672,-31.250
1584600549.067,54.688,34.180,37.109,192.383,-55.664
1584600549.071,37.598,29.297,29.297,110.352,-20.508
1584600549.075,-4.395,23.926,24.414,-109.375,13.672
1584600549.079,5.859,28.809,27.832,-75.195,-24.414
1584600549.083,47.363,36.621,32.227,141.602,-17.090
1584600549.087,45.410,36.133,29.785,147.949,36.133
1584600549.091,1.465,27.344,25.391,-64.453,16.113
1584600549.095,-0.977,29.785,31.738,-109.863,32.715
1584600549.099,37.598,38.086,33.691,98.633,37.598
1584600549.102,51.270,41.992,27.832,183.594,-17.090
1584600549.106,24.414,34.668,21.973,0.000,15.137
1584600549.110,9.766,28.320,21.973,-128.906,73.730
1584600549.114,45.898,34.668,30.762,42.969,41.504
1584600549.118,61.523,37.598,34.180,198.730,22.949
1584600549.122,27.832,30.273,27.832,68.848,20.020
1584600549.126,-8.789,20.508,23.438,-132.324,-2.930
1584600549.130,12.695,24.414,26.367,-39.551,0.977
1584600549.134,58.594,31.250,30.273,181.152,21.973
1584600549.138,48.340,24.414,30.273,128.906,47.852
1584600549.142,0.488,20.020,24.414,-99.121,30.762
1584600549.145,3.906,26.855,23.926,-93.750,-0.977
1584600549.149,45.410,35.645,26.855,133.789,61.523
1584600549.153,44.922,34.180,25.879,162.598,34.668
1584600549.157,4.883,27.344,20.508,-57.129,20.508
1584600549.161,-4.395,27.832,20.508,-136.719,-35.645
1584600549.165,41.992,37.598,30.273,71.289,-84.473
1584600549.169,61.035,39.551,30.762,186.035,17.578
1584600549.173,19.531,29.297,22.949,18.066,31.250
1584600549.177,-5.859,24.902,22.461,-125.977,3.906
1584600549.181,20.508,28.809,29.785,24.902,19.531
1584600549.185,50.293,30.273,35.156,195.801,86.426
1584600549.188,39.062,24.902,32.715,86.426,58.594
1584600549.192,-7.324,19.531,25.879,-119.629,6.836
1584600549.196,-2.441,24.902,28.809,-54.199,29.785
1584600549.200,39.551,34.668,32.227,155.273,26.367
1584600549.204,35.645,32.227,28.320,125.488,29.785
1584600549.208,1.953,24.902,22.949,-88.867,64.941
1584600549.212,2.930,24.902,27.344,-92.773,39.551
1584600549.216,43.945,33.203,39.062,127.930,-9.277
1584600549.220,49.316,30.762,42.969,167.480,-1.465
1584600549.224,-0.488,20.508,32.715,-43.945,22.461
1584600549.227,-16.113,22.461,24.414,-145.996,49.805
1584600549.231,34.180,34.668,31.738,50.781,22.461
1584600549.235,62.012,37.598,35.156,183.594,40.039
1584600549.239,27.344,27.832,28.809,22.949,67.871
1584600549.243,-6.348,22.949,26.367,-144.043,52.246
1584600549.247,26.855,27.344,31.250,-6.836,18.066
1584600549.251,60.547,30.273,35.156,187.988,49.805
1584600549.255,34.668,22.949,32.227,89.355,61.035
1584600549.259,-4.395,15.137,24.902,-124.512,36.133
1584600549.263,3.906,21.484,21.973,-72.266,28.809
1584600549.267,34.668,33.203,27.832,145.996,13.672
1584600549.270,31.250,30.762,26.367,134.277,29.785
1584600549.274,-2.930,16.602,19.043,-82.520,16.602
1584600549.278,2.930,15.137,23.438,-95.703,29.297
1584600549.282,55.664,25.879,35.645,132.812,65.430
1584600549.286,54.199,26.367,35.156,180.664,57.617
1584600549.290,-5.371,20.508,21.973,-36.621,54.688
1584600549.294,-20.020,21.484,18.555,-150.391,11.230
1584600549.298,26.855,32.227,26.367,42.969,-17.090
1584600549.302,51.270,33.691,29.297,193.848,47.852
1584600549.306,20.508,20.996,28.320,45.898,42.480
1584600549.310,-14.160,15.625,29.297,-128.906,-0.977
1584600549.313,7.324,23.926,36.621,-12.695,18.066
1584600549.317,38.574,27.344,37.109,174.316,61.035
1584600549.321,16.602,21.973,28.320,94.238,59.082
1584600549.325,-15.137,18.066,22.461,-116.699,20.020
1584600549.329,5.859,23.438,22.461,-69.336,23.926
1584600549.333,45.410,30.273,27.832,161.133,42.969
1584600549.337,44.434,26.367,31.738,162.598,35.156
1584600549.341,0.000,15.625,29.297,-56.641,-12.695
1584600549.345,-21.484,15.625,26.367,-117.188,-13.184
1584600549.349,12.207,27.832,27.344,84.473,22.461
1584600549.352,33.203,28.809,28.809,171.387,91.309
1584600549.356,8.789,22.949,24.902,-10.742,41.504
1584600549.360,-3.906,22.461,22.461,-129.395,-23.926
1584600549.364,36.133,27.832,27.832,54.199,34.180
1584600549.368,63.477,33.691,29.297,206.055,45.410
1584600549.372,26.367,26.855,23.926,57.617,26.367
1584600549.376,-18.066,15.625,24.414,-130.859,17.090
1584600549.380,12.695,23.926,30.762,-18.555,30.273
1584600549.384,52.734,30.273,31.738,180.176,75.684
1584600549.388,34.668,20.996,27.344,117.676,71.777
1584600549.392,-1.953,12.695,24.414,-87.402,29.785
1584600549.395,3.418,16.113,27.832,-78.125,40.527
1584600549.399,41.016,26.855,31.738,131.348,69.336
1584600549.403,49.805,29.785,27.832,158.691,90.332
1584600549.407,13.184,24.414,21.973,-46.387,81.543
1584600549.411,-9.766,25.879,21.484,-118.164,7.324
1584600549.415,19.043,31.250,27.832,78.613,11.230
1584600549.419,46.387,32.227,31.250,191.406,57.129
1584600549.423,20.996,26.855,23.438,24.902,37.598
1584600549.427,-7.324,22.949,18.555,-121.094,15.137
1584600549.431,18.066,27.344,26.367,25.879,24.414
1584600549.435,55.664,31.250,32.715,187.500,-20.508
1584600549.438,35.156,22.461,29.785,73.730,-2.441
1584600549.442,-14.160,17.578,25.391,-126.953,22.949
1584600549.446,-0.977,26.367,27.832,-53.711,15.137
1584600549.450,40.527,33.691,29.785,152.832,19.043
1584600549.454,34.180,28.320,27.832,119.629,35.156
1584600549.458,0.000,19.043,24.902,-97.168,27.344
1584600549.462,12.695,25.391,30.762,-92.285,-5.371
1584600549.466,51.758,32.227,35.156,138.672,19.043
1584600549.470,41.992,33.203,29.297,166.016,-0.488
1584600549.474,3.418,30.273,20.996,-55.664,0.977
1584600549.477,-4.395,30.762,18.555,-129.395,8.789
1584600549.481,41.992,38.574,22.461,76.172,31.738
1584600549.485,52.734,37.109,22.949,190.918,35.156
1584600549.489,9.277,28.809,20.996,25.391,29.785
1584600549.493,-12.695,26.855,21.973,-141.602,48.828
1584600549.497,16.113,33.203,29.297,-3.906,16.602
1584600549.501,46.387,37.109,34.180,176.758,9.277
1584600549.505,29.297,28.809,35.645,78.125,52.246
1584600549.509,-11.719,19.531,30.762,-124.512,33.691
1584600549.513,0.977,23.438,29.297,-60.547,51.758
1584600549.517,48.340,30.273,35.156,155.762,80.566
1584600549.520,42.480,27.344,35.645,143.066,9.277
1584600549.524,-3.418,18.555,29.297,-70.801,-10.742
1584600549.528,-7.324,21.484,28.320,-107.910,19.531
1584600549.532,38.086,35.645,32.227,102.051,21.484
1584600549.536,50.293,36.133,27.344,162.109,48.340
1584600549.540,10.742,23.926,22.949,-31.250,7.812
1584600549.544,-4.395,18.066,26.367,-130.371,25.879
1584600549.548,28.320,23.926,35.645,50.293,32.227
1584600549.552,40.527,34.668,36.133,180.664,22.461
1584600549.556,3.906,32.227,29.297,32.227,41.504
1584600549.560,-22.461,28.809,25.879,-142.578,29.785
1584600549.563,9.277,34.668,27.344,-13.672,26.367
1584600549.567,46.875,37.598,32.227,184.570,7.812
1584600549.571,27.832,32.227,30.273,103.516,36.133
1584600549.575,-12.207,23.926,25.879,-107.910,39.062
1584600549.579,6.348,27.344,32.715,-70.312,55.664
1584600549.583,48.340,36.621,40.039,149.902,33.203
1584600549.587,37.598,32.227,34.668,153.320,7.812
1584600549.591,-4.395,20.508,25.391,-65.918,16.113
1584600549.595,-2.441,21.484,26.855,-111.816,50.781
1584600549.599,36.621,32.227,33.203,107.422,67.871
1584600549.602,52.246,33.203,29.785,185.059,3.418
1584600549.606,14.648,21.973,24.414,-11.230,-10.742
1584600549.610,-21.973,18.555,26.855,-125.488,9.277
1584600549.614,17.578,26.367,34.668,52.246,40.039
1584600549.618,52.246,26.855,34.668,196.289,66.406
1584600549.622,19.043,21.484,26.855,58.105,49.316
1584600549.626,-22.949,20.996,21.973,-137.695,-9.766
1584600549.630,5.859,26.367,25.391,-33.203,-25.391
1584600549.634,55.176,35.156,31.250,181.152,70.312
1584600549.638,39.062,29.297,28.320,116.211,45.410
1584600549.642,-10.254,19.531,22.461,-112.793,-18.555
1584600549.645,0.000,26.367,23.926,-87.891,42.969
1584600549.649,46.875,30.762,30.273,146.973,65.430
1584600549.653,45.410,24.902,27.344,162.598,30.273
1584600549.657,5.859,20.996,20.020,-63.965,29.785
1584600549.661,-1.953,22.949,23.438,-127.930,83.496
1584600549.665,32.227,28.809,31.738,81.543,43.457
1584600549.669,44.434,27.832,34.180,181.641,1.465
1584600549.673,16.113,18.066,31.738,7.324,12.207
1584600549.677,-12.695,15.137,32.715,-133.789,0.488
1584600549.681,8.301,23.438,34.668,13.672,20.020
1584600549.685,36.133,26.855,28.809,173.340,56.641
1584600549.688,23.926,23.438,24.414,62.988,13.672
1584600549.692,-5.371,20.508,19.043,-121.582,3.418
1584600549.696,7.324,29.297,21.973,-34.180,17.578
1584600549.700,41.016,32.715,25.879,162.598,9.277
1584600549.704,31.250,26.855,22.949,115.234,19.531
1584600549.708,-5.859,21.973,19.531,-91.797,54.688
1584600549.712,-3.418,25.391,22.949,-88.867,58.105
1584600549.716,34.180,36.621,33.691,128.418,8.789
1584600549.720,37.109,28.320,34.180,166.504,-67.871
1584600549.724,3.906,13.184,30.273,-31.738,-27.832
1584600549.727,-0.977,17.578,33.203,-115.234,34.180
1584600549.731,38.574,36.621,38.086,70.801,43.945
1584600549.735,44.434,39.551,35.156,183.105,53.711
1584600549.739,8.301,28.320,29.785,24.414,27.344
1584600549.743,-10.742,22.949,29.297,-122.559,23.926
1584600549.747,23.926,28.320,31.250,15.137,24.414
1584600549.751,52.246,33.203,33.691,185.059,50.293
1584600549.755,25.391,25.391,27.832,72.266,83.496
1584600549.759,-13.184,21.484,20.996,-125.000,29.785
1584600549.763,6.836,28.320,25.391,-48.340,50.781
1584600549.767,47.852,31.738,31.250,162.598,56.152
1584600549.770,32.227,28.809,30.762,134.277,30.273
1584600549.774,-15.625,20.508,27.344,-85.938,22.949
1584600549.778,-11.230,23.438,28.809,-102.051,30.762
1584600549.782,42.480,31.738,33.203,120.117,59.082
1584600549.786,55.664,28.809,35.645,174.316,39.062
1584600549.790,11.230,18.555,34.180,-33.203,65.918
1584600549.794,-12.207,16.113,33.203,-128.906,-16.113
1584600549.798,30.762,29.297,38.086,65.430,-11.230
1584600549.802,49.805,31.738,39.551,190.430,30.762
1584600549.806,21.973,23.438,35.645,39.062,20.996
1584600549.810,0.977,21.484,27.832,-129.395,44.434
1584600549.813,22.949,31.250,30.762,-1.465,34.180
1584600549.817,53.223,35.156,39.062,190.918,58.594
1584600549.821,34.180,24.414,35.156,101.562,67.383
1584600549.825,-4.883,20.020,28.320,-118.164,12.207
1584600549.829,5.859,25.879,30.273,-79.590,42.480
1584600549.833,31.738,30.762,39.062,145.020,62.500
1584600549.837,20.020,28.320,41.992,141.602,-17.578
1584600549.841,-11.719,20.020,30.762,-72.266,-2.441
1584600549.845,-9.277,20.508,25.879,-109.375,45.898
1584600549.849,36.133,30.273,38.086,103.516,80.566
1584600549.852,48.828,32.227,40.527,181.152,76.172
1584600549.856,8.789,22.949,34.180,-11.719,-12.695
1584600549.860,-10.254,20.996,29.297,-134.766,-22.461
1584600549.864,26.367,30.273,29.785,30.762,50.293
1584600549.868,48.340,31.250,33.203,179.199,18.555
1584600549.872,14.160,26.855,28.809,44.434,63.477
1584600549.876,-16.602,21.973,25.879,-144.043,93.262
1584600549.880,15.625,28.809,32.227,-30.273,0.000
1584600549.884,52.246,34.668,33.203,183.105,26.855
1584600549.888,38.574,26.855,26.855,116.211,7.324
1584600549.892,1.953,20.508,24.902,-103.027,-30.762
1584600549.895,7.324,25.879,27.832,-84.961,40.039
1584600549.899,44.434,33.203,29.297,132.324,39.551
1584600549.903,45.410,29.785,24.902,147.949,-24.414
1584600549.907,6.348,20.508,23.926,-59.082,26.855
1584600549.911,-2.441,18.555,28.320,-110.840,39.062
1584600549.915,42.969,28.320,32.715,97.168,19.531
1584600549.919,49.805,28.320,31.738,183.594,47.852
1584600549.923,5.371,17.090,24.902,-8.301,-4.395
1584600549.927,-15.137,15.625,24.902,-141.602,35.156
1584600549.931,26.367,25.391,31.738,30.273,74.707
1584600549.935,53.711,30.273,36.133,201.660,64.453
1584600549.938,20.508,24.902,33.691,76.660,55.176
1584600549.942,-23.926,17.578,26.367,-131.348,35.156
1584600549.946,-4.395,25.879,24.902,-45.410,23.438
1584600549.950,41.992,39.062,28.320,165.039,3.418
1584600549.954,36.133,38.086,25.879,121.094,43.457
1584600549.958,-1.465,29.297,20.508,-95.215,86.914
1584600549.962,5.859,29.785,25.879,-88.379,38.086
1584600549.966,53.223,34.180,32.227,135.254,67.383
1584600549.970,52.734,30.762,30.273,169.434,50.781
1584600549.974,6.348,24.414,25.879,-42.480,-13.184
1584600549.977,-11.719,25.879,23.926,-132.324,-8.301
1584600549.981,23.926,34.668,25.879,68.848,28.809
1584600549.985,49.316,35.645,28.809,189.453,44.922
1584600549.989,23.438,28.809,26.855,19.043,31.250
1584600549.993,-1.465,20.996,25.879,-133.789,-1.953
1584600549.997,34.668,28.809,34.668,23.438,-28.809
1584600550.001,64.453,35.645,39.551,201.660,14.648
1584600550.005,23.438,28.809,25.879,81.543,8.301
1584600550.009,-20.508,23.438,17.578,-130.859,2.930
1584600550.013,3.418,32.227,24.414,-62.500,17.090
1584600550.017,47.363,39.062,27.344,155.762,38.086
1584600550.020,35.645,31.250,27.832,131.836,21.973
1584600550.024,-2.930,20.508,23.926,-86.426,-20.508
1584600550.028,10.742,20.508,24.414,-101.562,40.039
1584600550.032,51.758,23.438,32.715,124.023,27.832
1584600550.036,50.293,19.043,34.180,187.500,11.230
1584600550.040,3.418,15.137,26.855,-23.438,36.133
1584600550.044,-14.648,19.043,24.414,-135.254,47.363
1584600550.048,25.879,28.320,26.367,56.641,40.527
1584600550.052,50.293,31.250,25.391,190.918,6.836
1584600550.056,22.949,24.902,22.949,33.203,25.879
1584600550.060,-5.371,19.531,22.949,-140.137,4.395
1584600550.063,20.996,28.320,23.438,-13.672,0.488
1584600550.067,53.223,37.109,25.879,182.617,30.273
1584600550.071,33.691,33.203,25.391,97.656,57.129
1584600550.075,-7.324,23.438,19.043,-117.188,13.672
1584600550.079,10.742,26.855,21.973,-62.012,-5.371
1584600550.083,60.059,33.691,27.832,160.645,20.996
1584600550.087,52.246,27.344,29.785,147.949,34.180
1584600550.091,13.184,20.508,25.879,-79.590,37.109
1584600550.095,0.977,21.973,23.438,-112.793,20.020
1584600550.099,27.832,28.809,27.344,102.051,31.738
1584600550.102,37.109,27.832,26.367,167.969,38.086
1584600550.106,-0.977,21.484,21.484,-16.602,74.219
1584600550.110,-7.324,22.461,19.531,-131.348,51.270
1584600550.114,39.062,29.785,23.438,47.363,-5.371
1584600550.118,59.082,33.203,28.320,197.266,23.926
1584600550.122,18.066,25.391,28.320,53.223,48.828
1584600550.126,-19.531,16.602,23.926,-132.324,23.926
1584600550.130,7.324,23.438,24.902,-24.902,19.043
1584600550.134,48.340,33.691,29.785,174.316,23.926
1584600550.138,39.551,33.691,28.320,111.328,38.574
1584600550.142,6.348,23.438,22.461,-97.168,26.855
1584600550.145,17.578,21.484,22.949,-69.336,-4.883
1584600550.149,57.129,29.785,32.715,151.855,-36.133
1584600550.153,56.641,27.344,33.691,156.738,-4.883
1584600550.157,12.695,18.066,22.461,-62.500,28.809
1584600550.161,-7.812,21.973,21.973,-122.559,54.199
1584600550.165,35.156,33.203,29.785,84.473,21.973
1584600550.169,53.711,31.250,31.738,183.594,-13.184
1584600550.173,17.578,19.531,27.832,11.719,46.387
1584600550.177,-1.953,15.625,25.391,-118.164,68.359
1584600550.181,26.367,23.438,33.203,44.434,50.293
1584600550.185,55.176,32.227,34.180,195.801,29.785
1584600550.188,24.414,26.367,28.320,56.641,-9.766
1584600550.192,-16.602,19.043,23.926,-145.020,-0.488
1584600550.196,8.789,29.297,24.902,-52.734,35.156
1584600550.200,48.828,34.668,28.809,168.945,31.250
1584600550.204,34.180,26.367,27.344,117.676,71.289
1584600550.208,-4.395,19.531,23.438,-108.887,51.758
1584600550.212,4.395,23.926,27.344,-98.145,-4.883
1584600550.216,50.293,31.738,33.203,135.742,-9.277
1584600550.220,51.270,27.832,32.715,169.434,2.441
1584600550.224,0.977,16.602,28.809,-46.875,26.367
1584600550.227,-10.742,19.531,28.809,-125.000,16.113
1584600550.231,33.203,28.809,32.715,74.707,2.441
1584600550.235,50.293,28.809,32.227,184.082,52.246
1584600550.239,22.461,25.879,24.902,12.695,51.758
1584600550.243,-13.184,24.414,23.926,-141.113,2.930
1584600550.247,12.695,30.273,31.738,15.137,13.672
1584600550.251,49.805,33.691,32.227,188.477,-19.531
1584600550.255,22.461,31.250,23.438,75.195,-0.488
1584600550.259,-15.137,30.273,17.578,-130.371,28.320
1584600550.263,12.695,33.691,25.391,-56.641,22.461
1584600550.267,61.523,35.645,32.715,168.457,31.250
1584600550.270,45.410,31.738,28.809,143.066,57.617
1584600550.274,-0.977,23.926,20.020,-79.590,25.391
1584600550.278,-5.371,25.879,20.996,-102.539,-13.184
1584600550.282,33.203,36.133,26.855,116.699,45.410
1584600550.286,47.852,34.180,23.438,171.387,60.059
1584600550.290,19.531,23.438,17.578,-23.926,-27.344
1584600550.294,7.324,21.973,25.391,-111.816,-31.738
1584600550.298,41.992,30.273,38.086,84.473,15.137
1584600550.302,62.988,31.738,35.156,197.754,39.551
1584600550.306,25.391,26.855,21.484,18.555,13.672
1584600550.310,-14.160,26.367,17.090,-145.996,-35.156
1584600550.313,15.137,34.180,24.414,-8.301,1.465
1584600550.317,51.270,41.016,29.297,185.059,61.035
1584600550.321,32.715,32.227,26.855,99.609,76.660
1584600550.325,-0.488,21.973,26.367,-101.074,94.727
1584600550.329,17.578,24.902,33.203,-45.898,39.062
1584600550.333,53.711,32.715,35.156,155.762,-7.812
1584600550.337,35.156,33.691,30.273,131.348,-7.812
1584600550.341,-5.371,26.367,25.879,-88.379,48.340
1584600550.345,-6.836,28.320,22.461,-129.883,70.312
1584600550.349,24.902,36.133,25.391,84.473,16.113
1584600550.352,35.645,33.203,23.926,168.457,17.578
1584600550.356,5.371,24.902,20.508,-21.973,17.090
1584600550.360,-8.789,18.555,26.367,-131.348,62.012
1584600550.364,26.855,23.438,31.738,50.293,48.340
1584600550.368,44.922,30.273,30.762,180.664,-4.883
1584600550.372,7.324,25.391,26.855,25.879,5.859
1584600550.376,-23.926,20.508,20.996,-150.879,28.809
1584600550.380,13.672,28.320,23.926,-24.414,71.289
1584600550.384,51.270,34.180,23.926,176.758,105.957
1584600550.388,28.320,24.414,19.043,96.680,79.102
1584600550.392,-10.254,14.648,18.066,-118.652,22.949
1584600550.395,2.930,18.066,24.902,-75.684,2.930
1584600550.399,39.062,24.414,34.668,152.344,1.953
1584600550.403,30.762,19.043,34.668,159.180,64.941
1584600550.407,-7.812,14.648,27.832,-65.430,37.598
1584600550.411,-14.160,17.578,26.855,-123.047,-7.812
1584600550.415,28.320,27.344,30.273,89.355,28.320
1584600550.419,47.852,30.273,30.762,174.316,-6.836
1584600550.423,18.066,22.949,27.344,-7.812,26.367
1584600550.427,0.488,22.949,23.926,-138.184,16.602
1584600550.431,36.621,31.738,27.344,23.438,23.438
1584600550.435,67.871,34.668,32.227,189.941,35.645
1584600550.438,35.645,26.367,28.320,75.195,-7.324
1584600550.442,-5.371,17.578,23.926,-120.117,8.301
1584600550.446,14.160,24.902,28.320,-26.367,-18.066
1584600550.450,52.734,33.691,28.809,180.664,18.555
1584600550.454,36.621,26.367,24.902,122.070,-10.742
1584600550.458,-14.648,16.113,20.020,-102.539,-30.762
1584600550.462,-0.977,21.484,23.438,-88.379,57.129
1584600550.466,51.758,34.668,33.691,139.160,26.367
1584600550.470,55.176,32.227,36.133,163.086,-6.836
1584600550.474,10.742,19.531,27.344,-47.363,15.625
1584600550.477,1.465,22.461,21.973,-123.535,41.016
1584600550.481,44.434,31.250,29.297,74.707,-1.465
1584600550.485,55.176,30.273,32.227,191.406,-11.719
1584600550.489,12.695,19.531,28.809,20.508,53.223
1584600550.493,-17.090,16.113,25.879,-126.953,63.477
1584600550.497,20.508,28.809,26.855,20.020,93.750
1584600550.501,53.223,34.668,27.832,182.129,57.129
1584600550.505,28.809,25.391,22.461,72.754,59.570
1584600550.509,-6.348,20.996,15.625,-124.023,64.453
1584600550.513,15.625,28.809,20.508,-38.086,2.441
1584600550.517,60.059,29.297,31.738,183.594,21.973
1584600550.520,48.340,22.949,31.250,137.695,19.531
1584600550.524,2.441,20.020,24.414,-91.309,8.789
1584600550.528,-9.766,25.391,27.344,-98.145,28.320
1584600550.532,32.227,33.203,29.297,128.418,25.879
1584600550.536,47.363,32.715,25.391,172.852,37.109
1584600550.540,10.254,25.391,21.973,-35.156,11.719
1584600550.544,-0.977,25.879,23.438,-119.629,20.020
1584600550.548,35.156,33.203,27.344,68.359,40.527
1584600550.552,53.223,35.156,30.273,187.988,4.395
1584600550.556,16.602,26.367,29.785,33.691,35.156
1584600550.560,-15.625,18.555,28.320,-132.324,67.871
1584600550.563,17.578,28.809,33.203,4.883,46.387
1584600550.567,46.875,34.180,35.156,189.453,13.184
1584600550.571,22.461,22.949,29.785,86.426,-3.418
1584600550.575,-3.906,18.555,27.344,-121.582,-27.344
1584600550.579,17.090,24.902,27.344,-57.129,-11.230
1584600550.583,51.270,27.832,28.320,152.832,20.020
1584600550.587,37.109,27.344,27.832,140.137,34.668
1584600550.591,-10.742,20.996,27.832,-71.289,28.320
1584600550.595,-10.254,20.508,31.250,-103.027,3.418
1584600550.599,43.457,31.738,35.645,117.188,5.859
1584600550.602,53.223,31.738,34.668,184.570,61.035
1584600550.606,10.742,22.461,28.320,-13.184,31.250
1584600550.610,-7.324,22.949,24.414,-126.465,10.254
1584600550.614,25.391,26.855,31.738,53.711,24.902
1584600550.618,45.898,27.832,34.668,192.383,27.344
1584600550.622,15.625,22.949,29.297,48.340,10.254
1584600550.626,-10.254,20.996,27.344,-132.324,-21.484
1584600550.630,22.949,29.297,33.691,-13.672,-2.441
1584600550.634,55.664,34.668,33.691,186.035,19.531
1584600550.638,40.527,29.297,26.855,99.609,73.242
1584600550.642,3.418,16.602,24.902,-112.305,46.875
1584600550.645,13.672,20.996,25.391,-68.848,25.391
1584600550.649,53.711,32.227,28.320,154.297,83.008
1584600550.653,45.410,29.297,26.855,154.297,45.898
1584600550.657,0.977,21.973,18.555,-62.012,30.762
1584600550.661,-3.906,21.973,19.043,-111.328,35.645
1584600550.665,42.480,31.250,27.344,103.027,5.859
1584600550.669,60.547,32.227,30.273,190.430,-14.648
1584600550.673,26.367,22.949,28.320,-2.930,5.371
1584600550.677,10.254,25.879,29.297,-125.977,92.285
1584600550.681,42.969,35.645,32.715,49.805,74.219
1584600550.685,69.824,34.668,29.785,196.777,37.109
1584600550.688,41.016,25.879,22.949,64.941,62.500
1584600550.692,-2.930,19.531,17.578,-125.977,21.484
1584600550.696,15.625,24.902,20.996,-25.391,-2.441
1584600550.700,57.129,30.762,30.273,186.523,31.738
1584600550.704,39.551,23.926,29.297,125.000,0.488
1584600550.708,-3.906,21.484,22.949,-94.727,-6.836
1584600550.712,5.859,30.273,26.855,-78.125,56.152
1584600550.716,49.316,37.109,32.715,133.301,33.203
1584600550.720,52.734,33.203,27.832,164.062,30.762
1584600550.724,13.184,20.508,21.484,-37.598,57.129
1584600550.727,4.395,18.066,23.438,-113.281,24.414
1584600550.731,44.922,30.273,32.227,89.844,3.418
1584600550.735,59.082,31.738,31.250,197.754,88.867
1584600550.739,22.949,19.043,26.855,25.391,79.590
1584600550.743,3.418,15.625,26.367,-125.977,-20.508
1584600550.747,35.156,24.902,27.832,22.949,-6.348
1584600550.751,65.918,27.344,27.832,192.383,32.227
1584600550.755,41.504,22.461,22.949,75.195,16.113
1584600550.759,-0.488,20.020,18.066,-116.211,1.465
1584600550.763,22.461,26.855,21.973,-32.715,0.977
1584600550.767,67.383,35.645,27.832,169.922,15.137
1584600550.770,59.082,30.762,23.438,134.277,36.621
1584600550.774,20.020,18.555,20.020,-84.473,39.062
1584600550.778,15.625,20.508,22.949,-88.379,96.191
1584600550.782,57.129,31.738,22.949,139.648,95.215
1584600550.786,60.059,30.762,21.484,187.500,23.438
1584600550.790,16.113,24.902,19.043,-20.996,51.270
1584600550.794,3.906,25.879,18.066,-119.629,50.293
1584600550.798,39.551,30.762,21.973,70.312,22.461
1584600550.802,49.805,32.227,23.438,200.684,89.844
1584600550.806,10.254,24.902,20.996,35.156,81.055
1584600550.810,-22.461,20.996,19.531,-136.719,34.180
1584600550.813,12.207,29.785,23.438,7.324,51.758
1584600550.817,55.176,35.645,24.414,194.336,7.324
1584600550.821,35.645,32.715,19.531,95.215,-17.578
1584600550.825,-4.883,26.855,18.555,-112.305,28.320
1584600550.829,10.254,30.273,20.508,-52.246,32.715
1584600550.833,52.734,38.086,18.066,165.527,-20.996
1584600550.837,43.945,35.645,17.090,147.949,-12.207
1584600550.841,4.395,28.320,18.066,-67.383,-3.418
1584600550.845,7.812,26.367,19.531,-89.844,10.254
1584600550.849,52.246,32.227,20.996,116.699,-3.906
1584600550.852,56.152,34.180,20.020,170.410,-15.137
1584600550.856,15.625,24.902,14.648,-26.855,29.297
1584600550.860,7.324,24.414,18.066,-125.488,-5.859
1584600550.864,36.133,31.738,30.762,55.176,13.672
1584600550.868,43.457,33.203,29.297,192.871,75.195
1584600550.872,7.324,27.344,19.043,45.410,12.207
1584600550.876,-22.461,22.461,18.066,-129.395,9.766
1584600550.880,15.625,31.738,25.391,-5.859,57.617
1584600550.884,54.688,38.086,30.273,194.824,78.613
1584600550.888,33.203,29.297,29.297,114.258,95.215
1584600550.892,-3.906,22.949,23.438,-106.934,61.035
1584600550.895,13.184,26.855,27.832,-65.918,56.152
1584600550.899,49.805,31.250,36.621,151.367,51.758
1584600550.903,46.387,30.762,30.273,151.367,17.578
1584600550.907,4.883,22.461,21.973,-63.965,51.270
1584600550.911,-5.859,22.461,20.996,-108.887,59.082
1584600550.915,36.133,31.738,24.414,100.098,12.695
1584600550.919,52.246,36.133,26.855,180.664,-24.414
1584600550.923,21.973,29.785,22.461,-5.371,-13.184
1584600550.927,-1.465,24.414,20.020,-134.766,29.785
1584600550.931,31.738,31.738,26.367,35.645,41.992
1584600550.935,57.617,38.086,28.809,188.965,48.828
1584600550.938,24.902,30.273,23.926,51.758,45.410
1584600550.942,-7.324,20.020,22.461,-136.230,14.648
1584600550.946,20.020,24.902,27.832,-28.809,75.684
1584600550.950,50.293,31.738,28.809,181.152,53.711
1584600550.954,32.715,28.320,20.996,118.164,-18.066
1584600550.958,-9.277,21.484,18.555,-106.445,-31.250
1584600550.962,-0.977,28.320,24.902,-86.914,15.137
1584600550.966,48.828,35.156,27.832,145.020,38.086
1584600550.970,48.340,30.762,24.902,171.387,0.488
1584600550.974,5.859,23.926,21.973,-48.340,-24.414
1584600550.977,2.441,26.367,24.414,-118.164,20.020
1584600550.981,44.434,32.227,26.855,85.938,51.758
1584600550.985,58.105,28.809,25.879,187.012,55.664
1584600550.989,18.555,20.996,19.043,16.113,92.773
1584600550.993,-12.695,20.508,18.066,-129.883,20.996
1584600550.997,27.832,30.273,27.832,26.855,21.484
1584600551.001,62.012,30.762,29.297,192.871,62.012
1584600551.005,31.738,20.508,19.043,76.660,24.902
1584600551.009,-3.418,14.160,16.113,-120.117,42.969
1584600551.013,25.879,21.484,26.855,-39.062,-12.207
1584600551.017,59.570,27.832,31.738,173.340,-41.992
1584600551.020,31.250,21.484,26.855,129.883,5.371
1584600551.024,-5.371,14.648,24.414,-86.914,14.648
1584600551.028,7.324,20.020,23.438,-89.844,62.500
1584600551.032,49.316,29.297,26.367,125.488,43.457
1584600551.036,45.410,26.855,29.297,168.457,0.977
1584600551.040,7.324,20.996,25.391,-36.133,9.766
1584600551.044,4.883,20.020,25.391,-125.000,40.527
1584600551.048,42.480,24.902,28.809,65.430,44.434
1584600551.052,56.152,28.809,27.344,189.941,9.277
1584600551.056,22.949,20.020,27.344,33.203,-9.277
1584600551.060,-6.836,13.184,25.391,-131.348,12.695
1584600551.063,25.879,18.555,26.855,11.719,30.273
1584600551.067,61.523,22.461,33.203,193.359,52.246
1584600551.071,35.156,18.555,31.250,95.703,13.672
1584600551.075,-3.418,12.695,25.879,-110.352,1.465
1584600551.079,16.602,16.602,30.273,-45.898,52.734
1584600551.083,58.594,25.391,38.086,174.316,31.250
1584600551.087,42.969,20.996,32.227,145.996,-37.598
1584600551.091,-5.371,13.672,26.855,-79.590,-28.809
1584600551.095,-0.488,18.555,35.645,-98.145,29.785
1584600551.099,43.945,26.367,36.621,123.047,71.777
1584600551.102,49.805,24.902,34.180,178.223,94.238
1584600551.106,14.160,20.996,29.785,-25.879,63.477
1584600551.110,-4.883,22.461,26.367,-128.418,45.410
1584600551.114,36.621,28.320,32.715,60.547,49.805
1584600551.118,61.523,29.297,37.109,192.871,39.551
1584600551.122,21.484,22.949,28.809,38.574,11.719
1584600551.126,-4.395,23.926,24.902,-135.742,-10.742
1584600551.130,23.438,28.809,36.133,-2.930,-20.020
1584600551.134,48.828,28.320,35.156,194.336,0.488
1584600551.138,32.715,20.996,26.367,94.238,42.480
1584600551.142,-0.977,15.137,25.391,-121.094,41.016
1584600551.145,12.695,20.996,31.250,-68.359,-7.324
1584600551.149,54.199,28.320,36.621,156.250,-11.719
1584600551.153,48.340,26.367,32.715,156.738,2.930
1584600551.157,9.277,19.531,24.414,-60.059,21.484
1584600551.161,4.883,21.973,25.879,-105.469,52.246
1584600551.165,46.387,31.250,31.738,106.934,63.965
1584600551.169,60.059,30.273,25.391,185.059,67.871
1584600551.173,14.160,21.484,20.996,0.000,62.012
1584600551.177,-10.742,21.484,23.926,-124.512,41.016
1584600551.181,26.367,30.762,28.809,42.480,22.949
1584600551.185,55.664,38.574,32.227,190.430,41.016
1584600551.188,27.832,33.691,28.320,55.176,2.930
1584600551.192,-3.418,25.879,24.414,-128.418,-42.480
1584600551.196,19.531,30.273,29.297,-22.461,17.578
1584600551.200,57.617,36.133,36.133,187.012,48.828
1584600551.204,43.945,31.738,34.668,124.023,11.719
1584600551.208,0.000,21.973,26.367,-97.168,10.742
1584600551.212,5.371,26.367,25.879,-72.266,9.766
1584600551.216,54.199,38.086,32.715,154.785,55.664
1584600551.220,53.223,34.668,30.273,167.969,85.449
1584600551.224,5.859,22.949,20.020,-50.781,21.973
1584600551.227,6.348,22.949,20.508,-121.094,12.207
1584600551.231,50.781,31.250,30.762,90.332,45.898
1584600551.235,62.988,33.691,29.785,194.824,17.578
1584600551.239,14.648,26.855,23.926,11.230,20.996
1584600551.243,-12.695,23.926,23.926,-130.371,50.781
1584600551.247,22.461,32.715,27.832,29.297,69.336
1584600551.251,50.781,33.691,28.320,192.383,39.551
1584600551.255,31.250,25.391,21.973,66.895,-24.902
1584600551.259,-5.859,18.555,18.555,-121.582,-0.488
1584600551.263,11.230,23.438,22.949,-34.668,18.555
1584600551.267,47.852,34.180,29.785,172.852,38.086
1584600551.270,41.992,29.785,29.297,132.812,47.852
1584600551.274,-1.465,21.973,22.949,-92.285,-16.602
1584600551.278,3.418,28.320,25.879,-88.867,-5.371
1584600551.282,50.781,37.598,33.691,139.160,77.637
1584600551.286,53.223,35.645,32.715,178.223,55.176
1584600551.290,7.812,23.926,22.461,-30.762,8.301
1584600551.294,-5.859,24.902,20.996,-115.723,-10.742
1584600551.298,39.551,36.133,25.391,81.543,-44.434
1584600551.302,66.895,36.621,26.367,205.566,-16.113
1584600551.306,41.016,25.879,22.461,36.621,20.020
1584600551.310,9.766,21.484,19.531,-125.488,-22.461
1584600551.313,41.992,29.785,22.461,23.926,-17.578
1584600551.317,89.355,37.109,24.902,216.309,-25.391
1584600551.321,75.195,30.273,23.438,125.488,20.508
1584600551.325,16.113,16.113,24.414,-99.121,38.086
1584600551.329,14.160,21.484,27.832,-46.875,4.395
1584600551.333,70.801,31.738,30.762,180.664,6.836
1584600551.337,84.961,23.438,29.297,173.828,71.289
1584600551.341,51.270,11.719,29.785,-34.180,105.957
