timestamps,TP9,AF7,AF8,TP10,Right AUX
1584600596.954,-5.371,20.996,23.926,3.906,-0.977
1584600596.958,-6.348,23.926,23.926,-43.457,20.996
1584600596.962,33.691,34.668,26.367,40.527,12.207
1584600596.966,41.016,32.227,28.320,103.516,35.645
1584600596.970,22.949,22.949,27.344,33.203,98.145
1584600596.974,14.160,21.484,28.320,-47.363,71.777
1584600596.977,35.156,26.855,30.273,13.184,20.996
1584600596.981,50.293,30.273,29.785,106.445,29.785
1584600596.985,27.832,26.855,29.297,61.035,40.039
1584600596.989,6.836,25.391,32.227,-32.227,44.922
1584600596.993,20.508,31.738,32.715,-16.113,43.457
1584600596.997,49.316,39.551,30.762,89.844,31.738
1584600597.001,37.598,35.156,27.832,93.262,-19.043
1584600597.005,4.395,30.762,28.320,-4.883,-28.809
1584600597.009,10.742,38.086,30.273,-30.273,33.203
1584600597.013,41.504,38.574,28.809,63.477,70.312
1584600597.017,48.340,35.645,28.320,106.445,67.871
1584600597.020,19.531,33.691,23.438,14.160,32.227
1584600597.024,1.953,33.203,20.996,-44.922,31.738
1584600597.028,30.273,34.668,24.902,29.297,31.250
1584600597.032,47.852,31.738,27.344,100.586,38.574
1584600597.036,21.484,28.809,28.320,41.992,36.621
1584600597.040,1.465,28.809,31.250,-36.621,23.438
1584600597.044,19.531,30.762,36.133,8.789,85.449
1584600597.048,46.875,33.203,34.668,106.934,40.039
1584600597.052,31.738,32.715,32.227,75.684,-2.441
1584600597.056,-0.488,27.832,30.762,-26.855,79.590
1584600597.060,11.719,26.367,28.320,-20.020,34.180
1584600597.063,43.457,30.762,28.320,82.520,-9.766
1584600597.067,34.668,30.762,30.273,95.703,71.289
1584600597.071,-4.395,22.949,31.250,-9.766,15.625
1584600597.075,-0.977,23.926,30.762,-48.828,1.465
1584600597.079,32.227,30.273,35.645,53.223,45.410
1584600597.083,31.738,27.832,37.598,102.539,27.344
1584600597.087,6.348,23.926,30.762,19.531,39.062
1584600597.091,-7.812,22.949,25.391,-46.875,22.949
1584600597.095,22.949,30.762,27.832,15.137,7.812
1584600597.099,41.016,32.715,31.738,102.051,65.430
1584600597.102,17.090,26.367,32.715,42.969,45.898
1584600597.106,-3.906,26.367,30.762,-52.246,12.207
1584600597.110,21.973,27.832,31.250,-17.090,44.434
1584600597.114,46.875,28.809,28.809,83.496,73.730
1584600597.118,34.180,28.320,28.809,62.500,68.359
1584600597.122,-4.883,24.902,32.227,-35.156,49.316
1584600597.126,7.812,24.902,34.668,-27.344,26.367
1584600597.130,47.363,27.344,31.250,82.031,38.086
1584600597.134,40.039,25.391,26.367,100.586,81.543
1584600597.138,6.348,28.809,27.344,-5.371,28.320
1584600597.142,2.441,33.691,24.414,-47.363,40.039
1584600597.145,39.062,30.273,28.809,49.805,135.254
1584600597.149,47.852,27.832,32.715,111.328,85.449
1584600597.153,18.066,27.832,27.832,24.414,16.113
1584600597.157,9.277,24.414,27.344,-49.805,-10.742
1584600597.161,26.855,25.391,29.297,9.766,-18.066
1584600597.165,44.922,31.738,27.832,97.656,2.930
1584600597.169,27.344,30.273,27.832,53.223,24.414
1584600597.173,-2.930,23.926,27.832,-29.785,27.344
1584600597.177,13.184,27.344,24.414,-6.348,38.574
1584600597.181,42.969,30.762,26.367,89.355,51.270
1584600597.185,34.180,26.855,26.855,83.984,17.578
1584600597.188,5.371,26.367,21.973,-20.508,21.973
1584600597.192,11.719,28.320,24.414,-27.832,35.156
1584600597.196,43.945,27.344,29.297,74.219,25.879
1584600597.200,44.922,25.391,28.320,104.492,16.602
1584600597.204,7.324,22.949,26.367,7.324,-9.766
1584600597.208,4.395,24.902,28.809,-43.457,27.832
1584600597.212,38.086,28.809,34.668,41.504,13.672
1584600597.216,49.316,30.273,33.691,103.516,-16.602
1584600597.220,22.949,28.809,29.297,38.086,-12.695
1584600597.224,1.465,29.297,29.785,-37.109,-34.668
1584600597.227,21.484,30.273,32.715,13.672,-19.531
1584600597.231,45.898,30.273,32.227,107.422,28.320
1584600597.235,26.855,28.809,30.273,70.312,41.504
1584600597.239,-2.930,23.926,27.344,-38.574,-12.207
1584600597.243,11.230,23.438,26.855,-23.438,-30.273
1584600597.247,43.945,26.367,28.320,85.938,18.555
1584600597.251,46.387,24.902,28.320,78.613,31.738
1584600597.255,10.254,22.949,27.832,-23.926,14.648
1584600597.259,11.230,26.855,30.762,-43.945,18.555
1584600597.263,50.781,35.156,30.273,59.082,8.301
1584600597.267,47.363,31.738,29.297,98.633,-28.320
1584600597.270,9.766,24.902,31.738,6.836,16.113
1584600597.274,3.418,25.391,31.250,-45.410,42.480
1584600597.278,33.203,26.367,29.297,32.227,24.414
1584600597.282,45.410,26.855,29.297,109.375,37.109
1584600597.286,11.719,23.438,27.344,45.898,17.090
1584600597.290,-5.859,22.949,28.320,-41.016,36.621
1584600597.294,29.785,31.250,29.297,-3.418,41.016
1584600597.298,54.199,36.621,31.738,99.609,11.719
1584600597.302,24.902,30.762,33.203,72.754,61.523
1584600597.306,-9.277,28.320,29.785,-30.762,69.336
1584600597.310,6.348,30.273,31.738,-17.090,-12.207
1584600597.313,40.039,27.832,35.645,84.961,9.766
1584600597.317,32.227,26.855,32.227,87.402,54.688
1584600597.321,2.930,24.414,31.250,-8.789,3.418
1584600597.325,5.859,27.344,30.762,-36.133,25.879
1584600597.329,35.645,31.250,29.297,52.246,36.133
1584600597.333,42.480,30.273,29.297,98.145,32.227
1584600597.337,17.090,26.855,24.414,17.578,13.184
1584600597.341,7.324,26.855,24.414,-49.805,20.996
1584600597.345,29.297,31.250,30.762,16.113,33.691
1584600597.349,41.504,32.227,36.133,101.074,-19.531
1584600597.352,17.578,26.367,33.203,44.434,19.531
1584600597.356,-4.395,21.973,23.438,-51.758,33.203
1584600597.360,23.438,27.832,25.391,-19.043,-6.348
1584600597.364,51.270,41.992,25.879,90.332,27.344
1584600597.368,34.668,41.992,24.414,72.266,71.777
1584600597.372,3.906,27.832,26.367,-37.109,53.711
1584600597.376,16.602,26.367,28.320,-38.086,41.504
1584600597.380,44.434,33.203,34.180,74.219,31.738
1584600597.384,35.156,34.180,35.645,99.609,4.395
1584600597.388,0.000,27.832,31.738,-5.371,20.996
1584600597.392,-4.883,23.926,28.809,-51.758,-1.465
1584600597.395,33.203,29.785,28.320,42.969,20.508
1584600597.399,36.621,28.809,29.785,102.539,36.621
1584600597.403,8.301,25.391,29.785,15.137,30.762
1584600597.407,-8.789,29.785,29.297,-53.223,-12.695
1584600597.411,12.207,25.879,29.785,12.695,1.465
1584600597.415,38.574,26.367,32.715,100.586,53.711
1584600597.419,16.602,25.391,31.250,50.293,2.441
1584600597.423,-9.766,20.996,26.367,-43.457,7.812
1584600597.427,18.555,24.414,27.832,-11.719,9.766
1584600597.431,43.457,24.902,27.344,91.309,22.461
1584600597.435,20.020,24.902,24.902,84.961,26.367
1584600597.438,-7.812,25.879,22.461,-16.113,23.438
1584600597.442,7.324,28.809,23.926,-37.598,6.348
1584600597.446,45.410,31.738,28.809,57.617,28.809
1584600597.450,44.434,31.738,28.809,89.844,25.391
1584600597.454,8.789,29.297,29.297,3.418,-7.324
1584600597.458,7.324,25.879,33.203,-41.992,2.441
1584600597.462,40.039,26.855,30.273,43.945,1.465
1584600597.466,62.988,29.297,28.320,120.605,47.852
1584600597.470,38.086,28.809,28.809,53.711,20.996
1584600597.474,1.465,27.832,26.855,-43.457,-19.531
1584600597.477,19.531,31.250,27.832,-3.418,22.949
1584600597.481,42.969,30.273,32.715,100.586,38.086
1584600597.485,21.973,25.391,30.762,61.035,11.719
1584600597.489,3.418,26.367,28.809,-36.621,-22.461
1584600597.493,26.367,25.879,33.691,-23.438,24.902
1584600597.497,56.641,26.367,35.156,81.055,75.684
1584600597.501,46.875,26.367,31.738,91.797,63.477
1584600597.505,10.254,20.020,30.273,-12.695,40.527
1584600597.509,9.277,22.949,31.250,-39.551,25.391
1584600597.513,33.691,26.855,35.156,64.941,-4.395
1584600597.517,32.227,26.855,36.621,108.887,15.137
1584600597.520,4.395,20.020,31.250,12.207,45.410
1584600597.524,-7.324,19.531,25.879,-43.457,27.344
1584600597.528,23.438,25.391,28.320,32.227,25.879
1584600597.532,44.434,23.438,28.809,104.004,32.227
1584600597.536,19.043,19.531,26.855,41.504,40.527
1584600597.540,4.883,20.020,29.785,-43.457,44.922
1584600597.544,33.203,25.879,30.762,6.348,29.785
1584600597.548,51.758,24.414,28.320,103.516,25.391
1584600597.552,35.156,21.484,29.297,65.430,-6.836
1584600597.556,3.418,25.391,32.227,-30.273,-1.953
1584600597.560,17.090,27.832,32.227,-22.461,80.566
1584600597.563,49.805,28.809,31.738,78.613,108.398
1584600597.567,41.504,27.344,28.809,97.656,85.449
1584600597.571,12.695,25.879,24.902,-7.812,75.195
1584600597.575,12.207,30.273,23.926,-41.992,77.637
1584600597.579,49.316,39.551,25.879,58.594,73.242
1584600597.583,50.293,37.109,28.320,105.469,34.668
1584600597.587,12.695,28.320,29.785,16.602,38.574
1584600597.591,8.789,27.832,31.738,-47.363,33.691
1584600597.595,41.016,33.691,31.250,20.996,22.461
1584600597.599,55.664,39.062,30.762,96.191,58.105
1584600597.602,25.879,35.645,34.180,41.504,59.570
1584600597.606,1.953,29.785,29.785,-42.480,36.133
1584600597.610,21.484,30.273,25.879,-7.324,45.410
1584600597.614,42.969,34.180,28.809,95.215,-11.719
1584600597.618,26.855,32.715,28.320,78.125,5.859
1584600597.622,-1.465,30.273,28.809,-30.762,68.359
1584600597.626,1.953,35.645,30.273,-36.133,22.461
1584600597.630,31.250,36.133,32.227,73.730,46.875
1584600597.634,25.879,33.203,34.180,98.145,42.480
1584600597.638,-6.348,28.809,31.250,-2.930,30.762
1584600597.642,-4.883,24.902,28.809,-45.410,13.672
1584600597.645,38.086,27.832,27.832,40.527,-5.859
1584600597.649,46.387,29.297,29.785,107.422,75.195
1584600597.653,9.277,25.879,30.273,27.344,108.887
1584600597.657,-8.301,24.414,28.320,-54.199,12.207
1584600597.661,24.414,29.297,32.227,14.160,8.301
1584600597.665,43.457,32.227,32.227,104.004,49.805
1584600597.669,20.996,31.250,24.414,51.758,-2.441
1584600597.673,-3.906,25.879,21.973,-38.574,1.953
1584600597.677,19.043,21.484,25.879,-15.625,41.992
1584600597.681,49.805,26.855,28.809,83.496,23.438
1584600597.685,31.250,24.414,26.367,83.984,59.082
1584600597.688,-0.488,20.996,23.438,-26.367,37.109
1584600597.692,3.418,25.879,22.949,-42.480,21.973
1584600597.696,45.898,27.344,29.785,82.520,45.410
1584600597.700,55.176,29.297,35.645,122.559,24.902
1584600597.704,9.277,28.809,29.785,15.625,72.266
1584600597.708,-13.184,29.785,23.926,-53.223,60.547
1584600597.712,20.996,36.621,23.926,24.414,-16.113
1584600597.716,44.922,36.621,22.461,88.867,19.531
1584600597.720,20.508,31.738,21.973,30.762,16.113
1584600597.724,-2.930,26.855,25.879,-39.062,-3.418
1584600597.727,22.949,29.785,29.297,7.324,35.645
1584600597.731,45.410,33.203,25.879,100.586,7.812
1584600597.735,23.438,33.203,25.391,58.594,-11.719
1584600597.739,-3.906,27.832,28.809,-32.715,13.184
1584600597.743,20.020,28.320,26.855,-7.812,64.941
1584600597.747,61.035,33.203,23.438,96.680,64.453
1584600597.751,45.410,32.715,21.973,92.285,4.395
1584600597.755,5.859,36.621,20.508,-9.277,-13.184
1584600597.759,14.648,35.645,23.438,-31.250,4.883
1584600597.763,48.828,34.180,27.832,73.730,21.973
1584600597.767,40.527,30.762,28.320,114.258,20.996
1584600597.770,7.324,29.785,25.391,17.578,33.691
1584600597.774,3.906,30.273,25.879,-39.551,60.059
1584600597.778,34.180,31.250,26.855,33.203,53.223
1584600597.782,48.340,36.133,24.414,102.051,49.805
1584600597.786,23.438,32.715,21.973,43.457,43.945
1584600597.790,4.883,28.320,23.438,-35.156,46.875
1584600597.794,26.855,36.133,26.855,-0.488,51.758
1584600597.798,51.270,36.133,30.762,95.703,35.156
1584600597.802,30.762,34.180,28.809,68.359,4.395
1584600597.806,0.488,34.180,26.367,-37.598,14.648
1584600597.810,19.043,30.762,28.809,-30.273,23.926
1584600597.813,44.922,29.785,31.250,77.148,56.152
1584600597.817,44.922,28.809,27.832,86.914,58.594
1584600597.821,15.625,27.832,23.438,-18.555,-1.465
1584600597.825,16.602,30.273,25.391,-56.152,0.977
1584600597.829,52.246,32.227,27.832,43.457,2.930
1584600597.833,44.434,34.180,27.344,106.445,11.230
1584600597.837,15.137,32.227,27.344,22.949,55.664
1584600597.841,4.883,29.297,28.320,-47.363,54.688
1584600597.845,32.227,26.855,33.203,29.785,5.859
1584600597.849,50.293,23.926,39.551,116.699,3.906
1584600597.852,23.438,19.531,39.062,64.453,54.688
1584600597.856,10.254,20.996,29.785,-20.020,38.086
1584600597.860,24.414,27.832,25.391,0.488,33.691
1584600597.864,37.109,35.156,24.414,86.914,4.395
1584600597.868,21.484,36.133,23.438,64.941,-3.418
1584600597.872,-6.836,32.715,22.461,-35.156,42.969
1584600597.876,1.953,30.762,21.973,-39.062,1.465
1584600597.880,41.016,32.715,26.855,69.336,-14.160
1584600597.884,44.434,36.621,31.250,95.703,48.340
1584600597.888,15.137,31.250,30.273,-6.348,24.414
1584600597.892,5.371,30.762,24.902,-44.922,18.555
1584600597.895,39.062,34.180,24.414,47.363,-9.277
1584600597.899,49.805,32.227,26.855,102.051,-29.785
1584600597.903,14.648,30.273,24.414,18.555,11.719
1584600597.907,-0.488,32.715,22.949,-48.340,35.645
1584600597.911,30.273,39.551,27.344,18.555,12.207
1584600597.915,46.875,36.133,27.832,98.145,-28.320
1584600597.919,21.484,27.344,26.367,52.246,-3.906
1584600597.923,1.465,25.391,24.902,-39.062,6.348
1584600597.927,25.879,26.367,26.855,-15.137,45.410
1584600597.931,60.059,33.203,30.273,89.844,83.984
1584600597.935,31.738,32.227,23.926,83.984,34.668
1584600597.938,-6.348,23.926,21.484,-19.043,-20.508
1584600597.942,9.766,28.809,24.902,-35.645,18.555
1584600597.946,42.969,32.227,28.809,69.336,32.227
1584600597.950,42.480,27.832,29.297,107.422,16.113
1584600597.954,10.742,25.879,26.855,5.859,18.066
1584600597.958,8.789,29.297,29.785,-47.852,25.391
1584600597.962,37.109,33.203,33.691,38.574,63.965
1584600597.966,52.734,32.715,31.250,104.980,83.496
1584600597.970,31.250,29.297,26.367,36.133,53.711
1584600597.974,8.301,27.832,28.320,-42.480,3.906
1584600597.977,32.227,36.133,30.273,2.441,20.508
1584600597.981,53.223,33.203,28.809,95.215,31.250
1584600597.985,27.344,23.926,27.344,59.082,35.156
1584600597.989,-1.465,23.926,24.902,-40.039,32.715
1584600597.993,12.695,24.414,29.297,-28.320,38.574
1584600597.997,31.738,28.809,29.785,83.008,66.406
1584600598.001,22.461,31.738,28.809,86.914,50.781
1584600598.005,5.371,26.367,27.344,-20.020,19.531
1584600598.009,14.160,28.809,27.832,-38.574,42.969
1584600598.013,32.715,33.203,35.156,65.430,58.594
1584600598.017,38.086,33.691,31.250,102.051,40.527
1584600598.020,11.719,29.297,26.367,5.371,2.930
1584600598.024,-0.488,28.320,28.809,-42.480,28.320
1584600598.028,29.297,30.762,32.227,40.039,38.574
1584600598.032,44.434,29.297,34.668,101.562,-12.695
1584600598.036,20.996,31.250,28.809,35.645,4.883
1584600598.040,0.488,30.273,24.414,-45.410,11.230
1584600598.044,23.438,29.785,25.391,-4.883,5.859
1584600598.048,47.363,32.715,29.297,97.168,1.465
1584600598.052,33.203,30.273,30.762,69.824,1.953
1584600598.056,-4.883,26.855,32.715,-38.086,17.090
1584600598.060,2.930,31.738,33.691,-27.832,29.297
1584600598.063,54.688,35.645,31.738,81.055,12.695
1584600598.067,57.129,36.621,32.227,96.680,-44.922
1584600598.071,13.184,31.250,32.227,-1.953,1.953
1584600598.075,-0.488,28.320,38.574,-48.828,30.762
1584600598.079,27.344,33.691,41.992,45.410,11.230
1584600598.083,34.180,29.785,44.434,109.375,18.066
1584600598.087,10.742,24.902,43.945,34.180,41.504
1584600598.091,-3.418,24.414,37.109,-41.016,28.320
1584600598.095,24.414,29.297,39.062,20.020,20.508
1584600598.099,48.340,31.738,38.086,108.887,40.527
1584600598.102,29.785,27.832,30.762,53.223,13.184
1584600598.106,1.953,27.344,28.809,-42.969,-3.418
1584600598.110,20.508,31.250,33.203,-9.766,17.090
1584600598.114,52.734,31.250,36.621,97.168,44.434
1584600598.118,36.621,25.879,34.668,81.543,15.137
1584600598.122,10.254,21.973,34.180,-21.484,-10.254
1584600598.126,11.719,30.273,36.133,-20.020,-2.930
1584600598.130,35.645,33.203,36.133,85.449,29.297
1584600598.134,32.227,27.832,38.574,106.445,49.805
1584600598.138,0.488,26.367,35.645,12.695,3.906
1584600598.142,9.277,31.738,30.273,-28.320,-0.488
1584600598.145,45.898,39.062,32.715,59.570,49.805
1584600598.149,54.688,34.668,31.250,115.723,10.254
1584600598.153,27.344,29.297,31.250,30.273,-39.551
1584600598.157,6.348,33.203,32.715,-38.086,-12.207
1584600598.161,30.273,36.133,37.109,30.762,-8.301
1584600598.165,56.152,32.715,41.016,120.117,52.246
1584600598.169,35.645,28.320,39.062,67.383,57.129
1584600598.173,6.836,30.273,34.180,-31.250,42.969
1584600598.177,29.297,30.273,40.039,-3.418,51.270
1584600598.181,57.129,30.762,44.434,108.398,52.734
1584600598.185,37.598,30.762,35.156,95.215,65.430
1584600598.188,9.277,27.832,28.320,-21.973,6.836
1584600598.192,11.719,24.414,28.809,-37.598,3.906
1584600598.196,41.016,29.785,32.227,62.988,43.457
1584600598.200,46.875,38.574,32.227,93.262,30.273
1584600598.204,15.625,31.738,32.227,-2.930,34.668
1584600598.208,4.395,24.902,32.715,-52.246,11.230
1584600598.212,36.133,29.297,29.785,36.621,10.254
1584600598.216,51.270,32.715,29.785,108.887,80.078
1584600598.220,18.066,28.809,30.273,36.621,98.633
1584600598.224,-7.812,22.949,27.344,-47.363,62.500
1584600598.227,19.531,22.461,30.273,2.441,-13.672
1584600598.231,37.598,25.879,29.785,99.121,-20.996
1584600598.235,14.648,26.367,26.855,65.918,-8.789
1584600598.239,-10.254,24.414,28.809,-31.250,-7.812
1584600598.243,0.000,32.715,25.879,-17.578,31.738
1584600598.247,30.273,36.621,27.832,92.773,86.914
1584600598.251,35.645,25.391,29.785,90.820,84.961
1584600598.255,5.371,23.926,23.438,-20.508,32.715
1584600598.259,8.301,29.785,29.297,-42.480,55.176
1584600598.263,38.574,31.250,35.156,60.547,38.574
1584600598.267,35.156,29.297,27.832,96.680,14.648
1584600598.270,4.883,25.879,25.879,5.371,50.781
1584600598.274,-7.324,26.855,31.738,-44.922,83.984
1584600598.278,30.273,32.227,33.691,31.250,53.223
1584600598.282,49.805,34.668,30.273,104.004,30.762
1584600598.286,18.555,32.715,26.367,36.621,11.719
1584600598.290,-6.348,31.250,24.414,-52.246,-14.648
1584600598.294,11.230,27.832,27.344,-7.324,-13.184
1584600598.298,39.062,26.367,29.785,94.238,-3.418
1584600598.302,22.461,21.973,30.273,64.453,1.465
1584600598.306,-3.906,20.508,28.809,-37.598,3.906
1584600598.310,16.602,26.855,28.320,-26.855,33.203
1584600598.313,47.363,31.738,30.762,80.566,8.301
1584600598.317,30.762,31.250,33.203,90.820,-9.766
1584600598.321,-3.906,27.832,32.715,-13.672,88.379
1584600598.325,1.953,28.320,28.809,-47.363,133.301
1584600598.329,38.574,30.762,32.715,52.246,80.078
1584600598.333,50.781,32.715,36.133,106.934,39.551
1584600598.337,12.207,30.273,31.738,14.648,31.250
1584600598.341,-2.930,26.855,29.785,-51.758,21.484
1584600598.345,32.715,27.832,31.250,17.578,-3.418
1584600598.349,56.641,29.785,33.691,99.121,28.809
1584600598.352,22.461,25.391,34.668,43.457,21.484
1584600598.356,-11.230,21.973,34.180,-49.805,18.555
1584600598.360,17.578,28.809,34.180,-8.789,59.082
1584600598.364,41.016,32.227,37.598,95.215,68.359
1584600598.368,21.973,27.344,37.109,76.660,52.734
1584600598.372,0.977,27.344,30.273,-28.320,26.855
1584600598.376,7.324,28.809,26.855,-31.250,32.227
1584600598.380,41.992,31.738,30.273,75.684,34.668
1584600598.384,43.457,32.227,28.809,100.586,35.645
1584600598.388,-3.418,27.344,27.344,3.418,17.090
1584600598.392,-12.695,18.066,32.715,-47.852,-3.906
1584600598.395,26.367,18.066,32.715,39.551,-2.930
1584600598.399,40.527,27.344,34.668,113.281,30.762
1584600598.403,13.672,25.391,35.156,33.691,63.965
1584600598.407,1.465,20.508,35.645,-44.434,20.996
1584600598.411,30.762,23.926,33.691,20.508,7.324
1584600598.415,56.152,25.879,30.762,115.234,40.039
1584600598.419,29.785,25.879,32.227,60.547,5.371
1584600598.423,0.977,21.973,30.762,-44.434,-32.227
1584600598.427,17.578,24.414,31.738,-20.508,-0.488
1584600598.431,45.410,28.320,33.203,85.938,20.508
1584600598.435,45.410,24.902,29.785,83.496,15.137
1584600598.438,9.766,22.949,26.367,-28.320,35.156
1584600598.442,16.113,24.414,26.367,-46.875,47.363
1584600598.446,55.664,25.879,27.344,60.547,9.766
1584600598.450,55.176,22.461,29.297,98.633,14.160
1584600598.454,32.227,19.043,25.391,15.137,-21.484
1584600598.458,26.855,20.508,27.344,-34.668,-17.578
1584600598.462,26.367,22.949,32.715,27.832,15.625
1584600598.466,17.578,22.949,30.762,92.285,45.410
1584600598.470,-2.930,14.160,28.809,30.762,20.020
1584600598.474,-25.879,10.254,28.809,-49.316,-22.949
1584600598.477,0.000,14.160,34.180,11.719,-13.672
1584600598.481,29.297,13.184,40.527,105.957,7.324
1584600598.485,16.113,16.602,37.109,60.059,23.926
1584600598.489,-18.555,16.602,31.738,-40.039,9.766
1584600598.493,5.371,16.113,33.203,-19.043,1.953
1584600598.497,48.340,22.949,36.133,91.797,71.289
1584600598.501,27.344,23.438,34.180,94.727,82.520
1584600598.505,-0.488,22.461,32.227,-6.836,16.602
1584600598.509,8.301,22.461,34.668,-33.203,0.488
1584600598.513,37.109,21.973,36.621,64.453,1.465
1584600598.517,44.922,21.973,34.668,114.746,21.973
1584600598.520,17.090,19.531,33.203,23.926,41.016
1584600598.524,13.184,23.926,33.691,-41.016,25.879
1584600598.528,37.109,28.809,29.785,28.320,-4.395
1584600598.532,47.363,29.785,28.320,112.793,14.160
1584600598.536,24.902,27.344,30.273,52.246,45.410
1584600598.540,0.977,27.344,29.785,-45.898,52.734
1584600598.544,22.949,33.203,32.227,0.977,22.461
1584600598.548,47.363,30.762,31.250,104.492,19.531
1584600598.552,34.668,24.414,31.250,75.684,49.805
1584600598.556,6.348,21.973,28.320,-33.691,45.898
1584600598.560,15.625,26.855,30.273,-31.738,21.484
1584600598.563,46.875,32.227,34.180,79.590,-5.859
1584600598.567,43.945,32.715,29.297,96.191,-9.766
1584600598.571,11.230,31.250,25.879,-16.113,20.020
1584600598.575,13.184,31.250,29.785,-53.711,41.992
1584600598.579,50.293,35.156,32.715,46.387,28.320
1584600598.583,53.223,29.785,30.273,104.004,69.336
1584600598.587,4.395,20.996,28.320,24.414,40.039
1584600598.591,-20.996,19.531,30.762,-44.922,-2.930
1584600598.595,23.926,22.949,39.062,28.809,37.109
1584600598.599,41.016,25.879,35.645,114.258,54.199
1584600598.602,13.672,26.367,26.855,50.293,50.293
1584600598.606,-9.766,23.926,23.438,-43.457,20.020
1584600598.610,9.766,26.367,27.832,-9.277,10.254
1584600598.614,41.016,30.762,28.320,93.750,18.555
1584600598.618,32.227,28.320,25.879,70.801,13.184
1584600598.622,1.465,19.043,26.367,-35.156,10.742
1584600598.626,3.906,16.602,27.832,-34.180,2.930
1584600598.630,41.992,26.855,34.180,81.055,22.949
1584600598.634,48.828,27.344,34.668,107.422,42.480
1584600598.638,11.719,19.531,31.738,2.441,22.949
1584600598.642,5.371,21.484,28.809,-43.457,-15.137
1584600598.645,35.645,27.832,29.297,49.316,-0.977
1584600598.649,40.039,27.832,32.715,114.746,64.941
1584600598.653,13.672,25.391,32.715,31.738,62.500
1584600598.657,1.465,27.832,29.297,-51.758,32.715
1584600598.661,36.621,24.902,29.297,7.324,5.371
1584600598.665,58.105,26.855,30.762,101.074,-48.828
1584600598.669,32.715,26.367,28.809,62.988,10.254
1584600598.673,14.160,24.414,25.391,-35.156,100.586
1584600598.677,17.578,24.414,24.902,-19.531,71.777
1584600598.681,36.133,26.855,30.762,86.914,28.809
1584600598.685,28.809,24.902,31.250,87.402,22.461
1584600598.688,-1.465,24.414,25.391,-15.625,11.719
1584600598.692,11.230,33.203,23.438,-36.621,30.273
1584600598.696,46.387,32.227,30.273,64.941,48.828
1584600598.700,41.016,27.344,34.668,106.445,22.949
1584600598.704,20.996,24.902,31.738,11.719,27.344
1584600598.708,19.043,26.367,29.297,-45.898,62.500
1584600598.712,40.039,30.762,28.320,40.527,32.715
1584600598.716,46.875,32.715,32.227,115.723,77.148
1584600598.720,20.020,30.273,32.715,38.086,57.617
1584600598.724,0.488,29.297,26.367,-54.199,75.684
1584600598.727,30.762,33.203,27.344,2.930,61.523
1584600598.731,47.852,32.715,30.762,102.539,-60.547
1584600598.735,26.855,28.320,32.715,67.871,-2.930
1584600598.739,7.324,23.438,38.086,-20.508,39.551
1584600598.743,16.113,27.832,34.668,-13.672,-3.906
1584600598.747,36.133,34.180,24.414,78.613,10.254
1584600598.751,25.879,33.691,20.508,84.473,33.203
1584600598.755,-2.441,33.691,21.484,-22.949,-38.574
1584600598.759,-0.488,33.691,24.902,-48.828,6.836
1584600598.763,34.180,36.133,31.738,59.082,93.262
1584600598.767,45.410,34.668,30.762,101.074,77.637
1584600598.770,13.672,29.785,27.832,2.441,8.301
1584600598.774,2.441,34.180,29.785,-56.641,-20.508
1584600598.778,32.715,37.598,28.320,25.391,0.000
1584600598.782,40.039,30.762,28.320,105.469,4.395
1584600598.786,7.324,27.832,26.367,38.086,21.484
1584600598.790,-9.277,30.762,24.414,-50.781,54.199
1584600598.794,17.578,33.203,26.855,-6.836,11.230
1584600598.798,38.574,35.156,28.320,101.074,44.922
1584600598.802,24.414,36.621,29.297,75.684,113.770
1584600598.806,1.953,33.691,30.273,-31.738,51.758
1584600598.810,16.602,31.250,28.809,-26.855,-19.043
1584600598.813,54.688,32.715,28.809,77.637,12.695
1584600598.817,41.016,30.273,30.762,97.656,44.434
1584600598.821,5.371,27.344,31.250,0.000,33.203
1584600598.825,4.883,28.809,30.273,-39.551,-8.301
1584600598.829,37.598,33.203,33.691,65.918,32.227
1584600598.833,44.434,34.180,35.156,112.793,41.992
1584600598.837,13.184,29.297,34.180,17.578,17.090
1584600598.841,6.836,30.762,31.738,-46.875,44.434
1584600598.845,34.668,34.668,31.738,20.020,28.809
1584600598.849,55.664,37.598,32.715,109.375,27.832
1584600598.852,33.203,36.621,26.367,50.781,63.477
1584600598.856,4.395,28.809,19.531,-49.316,42.480
1584600598.860,28.320,31.738,20.996,-15.625,34.668
1584600598.864,62.012,38.086,26.855,97.168,38.574
1584600598.868,44.434,31.738,30.762,84.473,-13.184
1584600598.872,6.348,28.809,30.762,-25.879,-32.227
1584600598.876,15.625,29.297,31.738,-32.715,-11.719
1584600598.880,48.828,28.809,31.250,74.219,1.465
1584600598.884,46.387,27.832,27.832,101.074,11.230
1584600598.888,12.695,21.484,25.391,0.000,39.062
1584600598.892,3.906,21.484,29.297,-43.945,61.035
1584600598.895,42.969,28.809,33.203,47.852,43.457
1584600598.899,54.199,27.344,31.738,105.957,36.133
1584600598.903,17.090,20.508,28.809,26.367,106.445
1584600598.907,0.977,20.996,27.832,-45.898,83.008
1584600598.911,37.598,25.391,28.320,20.020,62.988
1584600598.915,63.477,30.273,30.762,115.234,62.012
1584600598.919,41.504,30.273,28.809,65.918,32.715
1584600598.923,11.719,26.367,27.832,-34.180,0.977
1584600598.927,21.484,28.320,30.273,-8.789,-29.785
1584600598.931,46.875,31.738,31.250,98.633,-9.277
1584600598.935,38.574,30.762,35.645,95.703,31.738
1584600598.938,7.324,30.762,33.203,-16.113,-25.391
1584600598.942,12.207,33.691,30.273,-31.738,-37.598
1584600598.946,48.340,31.738,37.109,76.660,22.461
1584600598.950,47.852,28.320,36.621,99.121,41.504
1584600598.954,18.066,28.809,32.715,5.859,83.496
1584600598.958,2.441,26.855,33.203,-43.457,87.402
1584600598.962,32.715,28.320,33.203,41.504,49.316
1584600598.966,64.453,32.227,33.203,114.258,-0.977
1584600598.970,27.832,27.832,33.203,36.621,7.324
1584600598.974,3.906,27.344,32.715,-47.852,54.688
1584600598.977,33.203,34.180,33.691,3.418,47.363
1584600598.981,55.664,36.133,36.621,101.074,60.547
1584600598.985,37.598,29.297,36.133,70.801,33.203
1584600598.989,1.953,21.484,36.621,-30.762,7.812
1584600598.993,18.066,27.344,38.574,-22.949,57.129
1584600598.997,53.223,36.133,39.062,90.820,91.797
1584600599.001,41.016,29.297,34.180,96.191,60.059
1584600599.005,14.160,25.391,29.785,-9.277,32.227
1584600599.009,21.484,28.320,32.715,-36.133,58.105
1584600599.013,53.223,31.250,37.109,63.965,41.992
1584600599.017,50.293,30.273,37.109,114.746,42.969
1584600599.020,12.207,26.855,35.156,21.973,56.641
1584600599.024,3.906,21.973,36.621,-43.945,30.273
1584600599.028,34.180,20.508,41.016,41.016,1.953
1584600599.032,48.340,24.414,43.945,123.535,-15.625
1584600599.036,11.230,21.973,42.480,55.176,19.043
1584600599.040,-9.277,20.508,40.039,-29.297,68.359
1584600599.044,25.879,22.949,37.109,18.066,86.426
1584600599.048,42.480,23.926,35.645,107.910,56.152
1584600599.052,16.113,25.391,34.180,64.941,27.832
1584600599.056,-13.672,23.926,31.738,-42.969,79.102
1584600599.060,9.277,25.879,32.715,-21.973,100.098
1584600599.063,51.270,30.273,34.668,90.820,5.371
1584600599.067,48.828,27.832,34.668,94.727,-27.832
1584600599.071,17.090,21.973,34.180,-5.859,8.789
1584600599.075,14.648,25.879,31.738,-38.574,61.035
1584600599.079,51.758,26.855,31.250,54.199,-3.906
1584600599.083,49.316,24.902,34.180,107.422,-6.836
1584600599.087,2.441,21.973,34.180,28.809,38.086
1584600599.091,-11.719,21.973,28.809,-40.039,1.465
1584600599.095,18.066,26.367,26.855,23.926,-6.836
1584600599.099,40.527,29.785,30.273,107.422,-15.625
1584600599.102,26.855,29.297,28.320,52.246,-9.766
1584600599.106,4.395,25.391,26.367,-33.203,3.418
1584600599.110,22.949,29.297,28.809,-6.836,14.648
1584600599.114,49.316,30.273,27.832,92.285,-6.836
1584600599.118,41.992,25.879,25.391,83.008,14.648
1584600599.122,8.789,21.973,23.926,-18.066,42.969
1584600599.126,15.137,20.508,28.809,-22.949,15.137
1584600599.130,44.434,22.949,34.668,77.637,36.133
1584600599.134,36.621,24.414,32.227,97.656,43.457
1584600599.138,2.441,25.391,26.855,0.977,29.297
1584600599.142,-0.977,23.926,26.367,-44.922,27.832
1584600599.145,34.180,23.926,28.320,36.133,62.500
1584600599.149,44.434,29.297,31.738,108.887,95.703
1584600599.153,8.789,27.832,27.832,29.297,57.617
1584600599.157,-15.625,22.461,22.949,-57.129,44.434
1584600599.161,16.602,20.996,25.391,3.906,38.086
1584600599.165,46.875,25.391,22.949,96.191,11.719
1584600599.169,20.996,24.414,20.020,56.152,62.500
1584600599.173,-8.301,25.391,20.508,-42.969,35.645
1584600599.177,18.555,31.738,24.414,-20.996,-32.715
1584600599.181,43.457,29.297,28.809,87.891,-2.930
1584600599.185,23.438,24.414,26.367,79.102,12.207
1584600599.188,-8.301,22.949,22.461,-23.438,46.387
1584600599.192,0.000,25.391,27.344,-40.527,58.105
1584600599.196,37.109,25.391,30.762,66.406,13.672
1584600599.200,32.715,24.902,28.320,102.539,24.902
1584600599.204,0.977,23.438,26.855,4.883,58.594
1584600599.208,-2.441,23.438,29.785,-44.434,12.695
1584600599.212,23.926,26.855,33.203,32.227,-0.977
1584600599.216,37.109,26.367,35.156,99.609,11.230
1584600599.220,6.836,19.531,33.691,30.273,1.465
1584600599.224,-17.578,16.602,33.203,-54.199,48.828
1584600599.227,15.137,20.996,42.480,3.418,52.246
1584600599.231,44.922,28.320,43.457,101.562,42.480
1584600599.235,19.043,27.344,32.715,55.664,51.270
1584600599.239,1.953,25.879,24.414,-38.574,6.836
1584600599.243,36.621,28.809,25.879,-12.207,-1.953
1584600599.247,47.852,30.762,33.691,88.379,31.738
1584600599.251,15.625,32.227,31.738,73.242,41.992
1584600599.255,-16.602,29.297,26.367,-36.621,46.875
1584600599.259,-4.395,23.438,31.250,-54.688,58.594
1584600599.263,37.109,16.602,39.551,54.199,45.410
1584600599.267,31.738,17.090,39.062,98.145,49.316
1584600599.270,-12.695,19.531,38.574,7.324,48.340
1584600599.274,-20.020,20.020,36.621,-45.898,10.254
1584600599.278,11.230,23.438,33.203,17.090,-7.812
1584600599.282,28.320,25.879,38.086,94.727,31.250
1584600599.286,2.930,22.949,35.156,38.574,33.691
1584600599.290,-13.184,20.996,31.250,-45.898,4.883
1584600599.294,13.672,28.809,30.762,0.000,36.133
1584600599.298,37.598,29.785,30.273,100.586,45.898
1584600599.302,28.809,20.508,31.250,80.078,8.789
1584600599.306,-4.395,16.602,31.250,-21.973,35.156
1584600599.310,6.348,21.484,33.691,-19.043,4.395
1584600599.313,41.504,25.879,33.203,86.914,-13.672
1584600599.317,32.227,23.438,29.297,105.469,32.715
1584600599.321,-2.441,20.996,26.367,1.953,32.715
1584600599.325,-6.348,20.508,26.855,-43.457,39.551
1584600599.329,26.367,25.391,28.320,52.734,58.105
1584600599.333,37.109,24.414,27.832,113.281,20.996
1584600599.337,7.812,20.508,27.344,29.785,-2.441
1584600599.341,-3.418,20.996,27.832,-44.922,15.137
1584600599.345,28.320,26.855,30.273,17.578,42.969
1584600599.349,48.828,27.344,29.785,104.980,27.832
1584600599.352,35.156,17.090,28.809,59.082,36.133
1584600599.356,30.273,15.625,29.785,-11.230,53.711
1584600599.360,57.129,24.902,35.156,41.504,52.734
1584600599.364,54.688,29.785,28.809,115.723,55.176
1584600599.368,17.090,28.809,19.043,65.918,37.598
1584600599.372,-22.949,30.273,17.090,-39.551,-8.301
1584600599.376,-9.766,31.738,20.020,-36.133,16.602
1584600599.380,42.969,36.621,22.461,71.289,62.988
1584600599.384,44.434,39.551,21.484,92.285,67.383
1584600599.388,0.977,42.480,16.602,-9.766,25.879
1584600599.392,-12.207,44.922,16.113,-58.105,-18.066
1584600599.395,23.926,45.410,16.113,27.344,5.371
1584600599.399,37.598,47.363,12.207,95.215,6.348
1584600599.403,10.742,44.434,13.184,26.367,8.301
1584600599.407,3.418,37.109,16.602,-42.480,7.324
1584600599.411,33.203,40.527,20.020,14.648,30.273
1584600599.415,45.410,47.363,20.996,98.633,66.895
1584600599.419,25.879,39.551,19.531,56.152,38.086
1584600599.423,3.906,33.203,16.602,-40.039,20.996
1584600599.427,26.855,35.645,20.508,-21.973,23.438
1584600599.431,54.199,37.109,24.902,86.914,41.504
1584600599.435,39.551,35.645,20.996,84.473,23.926
1584600599.438,8.789,34.668,17.090,-19.531,-20.020
1584600599.442,18.555,30.762,16.602,-33.203,10.254
1584600599.446,50.293,32.227,17.090,65.430,-39.551
1584600599.450,50.293,39.062,16.113,94.727,-35.645
1584600599.454,17.090,38.086,14.648,-0.488,50.781
1584600599.458,5.371,32.227,15.625,-50.293,26.367
1584600599.462,38.574,32.715,19.531,37.109,29.297
1584600599.466,54.688,37.109,25.391,111.328,92.773
1584600599.470,20.020,30.273,26.367,34.668,82.520
1584600599.474,-8.301,24.902,22.461,-50.293,21.973
1584600599.477,28.809,31.738,27.344,-0.977,3.906
1584600599.481,57.129,31.250,29.297,95.215,14.648
1584600599.485,32.227,24.902,22.949,66.895,20.020
1584600599.489,2.441,26.367,20.508,-38.086,6.348
1584600599.493,21.484,32.715,24.414,-24.414,-6.348
1584600599.497,56.152,33.203,25.391,90.332,47.363
1584600599.501,49.316,29.297,24.902,93.262,50.293
1584600599.505,20.996,27.344,26.855,-8.301,15.625
1584600599.509,12.695,29.297,24.902,-39.062,-4.883
1584600599.513,27.832,30.762,27.344,58.594,-29.785
1584600599.517,37.109,27.832,30.273,103.027,18.555
1584600599.520,6.836,24.902,26.367,2.930,39.551
1584600599.524,-6.348,28.320,23.438,-59.082,-16.602
1584600599.528,27.832,29.785,24.902,21.973,-19.531
1584600599.532,46.875,30.273,29.297,105.469,23.438
1584600599.536,32.715,27.832,31.738,42.480,47.363
1584600599.540,-4.395,21.973,28.320,-48.828,37.598
1584600599.544,4.395,21.973,31.738,-8.301,35.156
1584600599.548,49.316,27.344,34.180,98.633,61.035
1584600599.552,33.203,29.785,32.715,73.730,90.820
1584600599.556,-3.418,27.832,35.156,-27.344,94.238
1584600599.560,7.324,29.297,32.227,-22.949,91.797
1584600599.563,42.969,34.180,28.809,75.684,67.871
1584600599.567,42.480,32.715,27.832,90.820,-13.184
1584600599.571,17.090,26.367,22.949,-10.742,-35.645
1584600599.575,17.578,27.344,25.879,-48.828,11.230
1584600599.579,45.898,23.926,34.668,59.082,51.270
1584600599.583,62.500,20.508,38.086,139.648,49.316
1584600599.587,29.297,27.832,33.691,49.316,45.898
1584600599.591,2.930,35.645,26.367,-55.664,49.316
1584600599.595,26.367,39.062,23.926,-7.812,-23.926
1584600599.599,48.340,42.480,22.461,82.520,-42.969
1584600599.602,6.836,41.016,20.020,32.227,82.031
1584600599.606,-51.758,34.180,10.742,-77.637,76.172
1584600599.610,-21.484,42.480,6.348,-55.664,31.738
1584600599.614,17.090,53.711,12.207,51.758,15.625
1584600599.618,-1.953,52.734,9.766,34.668,41.504
1584600599.622,-35.156,45.898,4.883,-79.102,94.727
1584600599.626,-16.602,53.711,4.395,-91.309,20.996
1584600599.630,24.414,61.035,0.977,10.742,-9.766
1584600599.634,13.672,60.547,-2.441,33.691,10.742
1584600599.638,-30.762,59.082,-5.371,-71.777,16.113
1584600599.642,-47.852,58.594,-12.695,-118.164,13.672
1584600599.645,-14.648,64.941,-9.277,-20.996,-5.371
1584600599.649,-0.488,73.730,-5.371,38.574,-4.395
1584600599.653,-16.602,73.242,-9.766,-44.922,-9.766
1584600599.657,-27.832,66.406,-14.648,-121.582,33.691
1584600599.661,-4.883,66.406,-15.137,-50.293,61.035
1584600599.665,20.508,68.359,-14.648,52.734,33.203
1584600599.669,4.883,64.941,-11.230,6.836,28.809
1584600599.673,-25.879,62.988,-5.371,-84.961,12.695
1584600599.677,-5.371,62.012,-6.348,-55.176,14.160
1584600599.681,28.320,62.012,-6.348,51.758,6.348
1584600599.685,22.461,65.430,-7.812,50.781,20.508
1584600599.688,-4.883,62.500,-7.324,-46.387,55.664
1584600599.692,-1.953,58.105,-3.906,-59.570,20.020
1584600599.696,38.086,58.105,2.930,40.527,35.156
1584600599.700,44.434,56.152,5.371,78.613,36.621
1584600599.704,21.973,51.758,-2.441,-4.883,15.625
1584600599.708,22.949,47.852,0.977,-53.711,16.113
1584600599.712,51.270,52.246,7.324,33.691,-0.977
1584600599.716,67.871,52.246,5.859,115.234,38.574
1584600599.720,48.828,47.363,7.812,44.434,2.441
1584600599.724,26.855,41.016,10.742,-41.992,-8.789
1584600599.727,34.180,40.039,9.766,7.812,0.000
1584600599.731,64.453,44.434,12.207,112.305,-13.184
1584600599.735,63.965,39.062,17.090,79.102,-4.395
1584600599.739,25.391,31.250,20.508,-34.180,-8.789
1584600599.743,43.457,35.156,20.020,-30.762,-19.531
1584600599.747,81.055,40.039,20.996,87.402,-45.898
1584600599.751,73.242,40.527,21.484,99.609,-10.254
1584600599.755,47.852,38.086,19.043,-5.859,41.504
1584600599.759,49.805,32.715,20.508,-37.109,51.270
1584600599.763,80.566,32.715,23.926,69.336,-8.301
1584600599.767,76.660,32.227,26.855,124.023,-11.230
1584600599.770,34.180,28.809,24.902,23.926,18.066
1584600599.774,15.625,28.320,26.855,-39.551,2.441
1584600599.778,47.852,29.297,29.297,42.969,35.645
1584600599.782,67.871,27.344,30.273,124.512,18.555
1584600599.786,41.504,24.414,29.785,60.059,-11.230
1584600599.790,12.207,23.926,26.855,-28.809,45.410
1584600599.794,31.250,25.391,27.344,6.836,43.945
1584600599.798,64.453,24.902,27.344,111.816,22.949
1584600599.802,50.781,23.438,26.367,84.961,39.551
1584600599.806,18.066,24.902,27.832,-30.273,11.719
1584600599.810,23.926,26.367,29.785,-23.438,50.781
1584600599.813,50.293,30.273,30.273,93.262,70.801
1584600599.817,48.828,28.320,32.227,107.422,-3.906
1584600599.821,31.738,25.879,29.297,-3.906,1.953
1584600599.825,44.434,29.785,24.414,-42.969,23.926
1584600599.829,83.496,28.320,27.832,60.059,56.641
1584600599.833,82.520,25.391,28.320,120.605,94.238
1584600599.837,27.832,25.879,26.855,39.062,42.969
1584600599.841,-1.465,21.484,30.273,-31.738,56.641
1584600599.845,43.945,25.879,31.250,37.598,65.918
1584600599.849,75.195,31.738,32.715,121.094,20.020
1584600599.852,31.250,26.367,35.645,57.617,-9.277
1584600599.856,-5.859,23.438,33.203,-34.180,-2.930
1584600599.860,21.484,23.926,29.785,3.906,4.395
1584600599.864,46.387,29.297,34.180,107.910,50.781
1584600599.868,26.367,26.855,31.738,91.797,51.270
1584600599.872,2.930,21.973,26.855,-14.648,21.484
1584600599.876,12.207,28.320,30.273,-24.414,59.570
1584600599.880,47.852,32.227,32.227,83.008,75.195
1584600599.884,49.805,33.203,29.785,111.328,53.711
1584600599.888,6.836,29.785,27.832,6.836,58.105
1584600599.892,13.672,24.414,26.367,-41.992,14.160
1584600599.895,61.035,31.250,26.367,54.199,5.371
1584600599.899,72.266,34.668,29.785,124.512,38.086
1584600599.903,38.574,25.391,33.203,36.133,43.945
1584600599.907,-6.348,20.020,34.668,-60.059,21.973
1584600599.911,16.113,19.531,40.039,9.277,12.207
1584600599.915,48.340,17.578,41.016,115.723,94.238
1584600599.919,13.184,15.137,35.645,58.594,107.422
1584600599.923,-22.949,12.695,37.598,-49.316,33.691
1584600599.927,-11.230,16.113,40.527,-35.156,14.648
1584600599.931,7.812,22.949,37.598,70.801,-0.488
1584600599.935,2.441,19.531,36.133,71.289,4.395
1584600599.938,-17.578,13.672,39.062,-33.691,71.777
1584600599.942,-2.441,19.043,40.527,-47.363,70.801
1584600599.946,32.715,25.391,35.645,61.523,68.848
1584600599.950,44.922,24.414,31.250,103.027,33.203
1584600599.954,27.832,20.508,31.250,2.930,0.488
1584600599.958,16.113,24.414,30.273,-52.734,-4.395
1584600599.962,32.715,31.250,32.227,44.434,28.809
1584600599.966,43.457,32.227,34.668,119.141,64.453
1584600599.970,9.277,22.949,30.273,33.203,53.223
1584600599.974,-9.277,20.996,27.832,-56.152,36.133
1584600599.977,30.762,31.738,30.762,0.488,34.668
1584600599.981,53.711,32.715,30.273,95.215,45.898
1584600599.985,28.320,24.414,29.297,54.199,13.672
1584600599.989,-3.906,25.391,28.809,-42.480,-17.578
1584600599.993,1.953,24.902,31.250,-23.926,49.316
1584600599.997,33.203,22.949,34.668,88.379,47.363
1584600600.001,30.273,29.785,33.203,95.215,23.926
1584600600.005,1.465,27.344,32.715,-12.207,25.879
1584600600.009,-5.371,20.020,31.738,-45.410,-23.926
1584600600.013,27.832,23.438,27.832,55.664,6.836
1584600600.017,36.621,25.391,30.762,106.934,52.246
1584600600.020,9.766,23.438,32.227,16.602,53.223
1584600600.024,-0.488,22.461,26.855,-45.898,69.824
1584600600.028,29.785,27.344,25.391,28.320,-6.836
1584600600.032,62.500,33.691,26.855,105.957,-19.043
1584600600.036,39.551,31.738,25.879,42.480,43.945
1584600600.040,2.441,23.926,27.344,-42.969,12.207
1584600600.044,21.973,22.949,28.320,3.418,-14.648
1584600600.048,57.129,26.855,28.809,97.656,13.672
1584600600.052,42.480,28.320,25.879,63.965,2.930
1584600600.056,14.160,27.344,22.461,-40.527,45.898
1584600600.060,27.344,31.738,24.902,-32.715,59.082
1584600600.063,49.805,32.715,30.273,81.055,-16.602
1584600600.067,41.016,29.297,29.785,103.027,-33.203
1584600600.071,4.395,22.461,28.809,-2.930,-17.578
1584600600.075,-1.953,28.809,29.785,-44.922,-10.742
1584600600.079,23.926,38.086,31.250,57.617,19.531
1584600600.083,31.250,29.297,34.180,122.559,25.391
1584600600.087,8.301,21.973,32.715,28.320,8.789
1584600600.091,-12.207,23.438,29.297,-51.270,32.227
1584600600.095,3.906,28.320,30.762,19.531,25.391
1584600600.099,20.996,26.367,27.344,109.863,-8.789
1584600600.102,18.066,23.926,23.438,52.246,-10.254
1584600600.106,-4.883,23.438,23.438,-43.945,3.418
1584600600.110,10.742,25.879,25.879,-6.348,54.688
1584600600.114,44.922,31.250,27.344,104.980,95.703
1584600600.118,36.621,27.832,27.344,86.914,61.523
1584600600.122,9.277,24.414,25.879,-30.762,60.059
1584600600.126,18.555,31.250,26.367,-34.180,57.129
1584600600.130,44.434,31.250,30.273,83.008,15.625
1584600600.134,33.691,23.438,29.297,109.863,25.391
1584600600.138,1.465,19.043,25.879,2.930,86.914
1584600600.142,0.488,19.043,21.484,-40.039,72.266
1584600600.145,33.691,25.879,22.949,55.176,43.457
1584600600.149,43.457,30.273,23.438,111.328,21.973
1584600600.153,10.742,21.973,22.461,26.855,-24.414
1584600600.157,1.953,20.996,26.855,-49.316,-11.719
1584600600.161,23.438,25.391,31.250,13.672,16.113
1584600600.165,38.086,24.902,28.809,108.398,-7.812
1584600600.169,23.438,26.855,26.367,60.059,-11.230
1584600600.173,-6.348,25.391,23.926,-47.363,26.855
1584600600.177,7.324,21.973,23.926,-28.809,44.922
1584600600.181,41.992,25.879,25.879,83.984,6.348
1584600600.185,30.762,26.855,25.879,88.379,41.992
1584600600.188,0.488,24.902,20.508,-21.973,112.793
1584600600.192,4.883,22.949,21.484,-40.039,54.688
1584600600.196,29.297,23.926,27.832,70.801,21.973
1584600600.200,35.156,24.902,29.785,107.910,73.730
1584600600.204,4.883,19.531,25.879,5.371,18.066
1584600600.208,-4.395,23.926,21.484,-57.129,15.137
1584600600.212,28.809,28.809,22.461,35.645,22.949
1584600600.216,42.480,26.367,19.531,117.188,-8.301
1584600600.220,38.574,24.414,18.066,38.574,15.625
1584600600.224,30.273,19.531,20.996,-49.805,24.902
1584600600.227,38.086,25.879,22.461,6.836,53.711
1584600600.231,42.480,28.320,26.367,105.469,46.875
1584600600.235,7.812,20.996,30.273,60.059,50.781
1584600600.239,-24.414,19.043,30.273,-53.223,30.273
1584600600.243,-2.930,22.949,29.785,-33.691,25.391
1584600600.247,38.086,25.879,31.250,90.820,33.203
1584600600.251,44.434,26.855,29.785,102.051,14.648
1584600600.255,25.391,25.879,26.855,-8.789,-0.977
1584600600.259,16.113,23.926,26.855,-37.109,-7.812
1584600600.263,42.969,26.855,29.785,70.312,5.859
1584600600.267,44.434,23.438,30.273,116.211,74.219
1584600600.270,11.719,19.043,23.926,18.555,63.965
1584600600.274,4.883,27.832,19.531,-43.945,-7.812
1584600600.278,34.180,29.785,23.926,34.668,18.555
1584600600.282,51.270,22.461,28.809,118.164,64.941
1584600600.286,33.691,21.484,26.367,49.805,39.551
1584600600.290,16.113,18.066,23.926,-44.922,36.133
1584600600.294,35.645,20.508,27.344,3.418,45.898
1584600600.298,59.570,24.414,30.273,114.258,29.297
1584600600.302,42.969,20.508,29.297,85.449,43.457
1584600600.306,7.812,16.602,26.855,-32.715,44.922
1584600600.310,8.301,20.020,26.367,-29.785,40.039
1584600600.313,24.902,22.461,30.273,88.867,60.059
1584600600.317,22.949,22.461,34.180,112.305,27.832
1584600600.321,10.742,20.508,30.273,0.977,5.859
1584600600.325,11.719,20.508,24.414,-48.828,-13.672
1584600600.329,41.992,24.414,25.391,49.805,7.812
1584600600.333,47.852,21.973,25.879,113.281,19.043
1584600600.337,17.090,17.090,24.902,29.785,10.254
1584600600.341,1.465,16.113,24.414,-46.875,32.227
1584600600.345,29.297,23.438,28.809,29.297,76.172
1584600600.349,53.223,28.809,29.785,116.699,60.059
1584600600.352,34.180,31.250,27.344,54.199,41.992
1584600600.356,19.531,30.273,29.785,-48.828,20.996
1584600600.360,25.879,27.832,30.762,-18.555,8.789
1584600600.364,38.574,26.367,31.250,102.051,17.578
1584600600.368,37.598,24.414,28.320,88.867,33.203
1584600600.372,13.672,23.438,28.320,-26.367,10.254
1584600600.376,20.508,25.391,31.738,-31.250,-0.488
1584600600.380,31.250,26.855,30.273,86.914,-3.418
1584600600.384,22.461,25.879,29.785,118.164,-27.832
1584600600.388,1.465,22.461,30.273,4.395,7.812
1584600600.392,-0.488,25.391,29.785,-47.363,51.270
1584600600.395,30.762,31.738,29.785,42.969,16.113
1584600600.399,35.645,28.809,26.367,107.422,-19.043
1584600600.403,15.137,25.391,23.438,23.438,47.363
1584600600.407,-2.930,26.855,22.461,-58.594,37.598
1584600600.411,19.043,26.855,25.391,11.719,-12.207
1584600600.415,44.922,29.785,26.855,114.258,46.387
1584600600.419,27.832,29.297,23.926,66.895,75.684
1584600600.423,0.977,25.879,20.508,-36.133,59.570
1584600600.427,10.254,25.391,23.438,-21.973,7.812
1584600600.431,34.668,26.855,26.367,87.402,0.000
1584600600.435,30.762,26.367,28.320,91.309,47.363
1584600600.438,7.324,24.902,26.367,-24.902,48.340
1584600600.442,15.625,27.832,23.438,-43.945,75.195
1584600600.446,44.434,31.250,28.320,67.871,88.867
1584600600.450,49.805,34.668,29.297,101.562,48.828
1584600600.454,26.367,32.227,25.391,-0.488,8.301
1584600600.458,1.465,24.902,28.809,-54.199,32.715
1584600600.462,20.508,19.531,37.109,37.109,58.105
1584600600.466,34.668,21.484,36.621,113.281,48.340
1584600600.470,12.695,20.020,29.297,33.691,27.344
1584600600.474,-3.418,19.043,27.344,-56.641,3.418
1584600600.477,13.672,19.531,30.762,3.418,25.879
1584600600.481,42.480,23.926,30.273,104.492,9.766
1584600600.485,28.320,27.832,26.855,62.500,-6.836
1584600600.489,0.977,20.020,26.855,-44.922,13.672
1584600600.493,13.184,21.973,27.344,-35.156,55.176
1584600600.497,42.969,29.785,33.691,81.543,41.992
1584600600.501,40.527,26.367,35.156,95.703,49.316
1584600600.505,11.230,19.531,28.809,-19.531,60.547
1584600600.509,7.324,22.461,28.809,-48.340,4.883
1584600600.513,34.668,29.297,29.785,58.105,17.090
1584600600.517,30.273,28.809,27.344,109.863,6.348
1584600600.520,-1.953,25.879,30.762,17.578,12.695
1584600600.524,-10.254,25.879,34.180,-50.293,-6.836
1584600600.528,7.324,25.391,32.715,26.855,-41.504
1584600600.532,20.020,21.973,29.785,110.840,-56.152
1584600600.536,15.137,20.996,27.344,43.457,-35.645
1584600600.540,-2.441,20.996,27.344,-62.500,-15.137
1584600600.544,21.973,23.438,26.855,-14.160,-2.930
1584600600.548,66.406,25.879,28.320,124.023,74.707
1584600600.552,49.805,26.855,27.832,99.609,73.730
1584600600.556,-0.977,29.785,23.926,-37.598,46.387
1584600600.560,-12.695,33.691,22.461,-44.922,58.105
1584600600.563,19.531,41.992,23.926,76.172,44.434
1584600600.567,28.809,42.480,23.926,101.562,34.668
1584600600.571,4.395,32.715,17.090,-16.602,5.371
1584600600.575,5.859,36.133,10.742,-64.453,-2.441
1584600600.579,41.504,48.828,12.695,31.738,34.180
1584600600.583,60.059,51.758,13.184,87.891,16.113
1584600600.587,49.805,46.875,7.812,0.000,-3.906
1584600600.591,24.902,49.316,6.348,-72.754,29.297
1584600600.595,24.414,51.270,10.254,10.742,9.277
1584600600.599,41.016,50.781,15.137,106.445,-4.395
1584600600.602,19.043,47.363,19.531,47.363,36.133
1584600600.606,0.000,44.434,19.043,-48.828,4.883
1584600600.610,21.484,47.363,17.090,-13.184,-24.902
1584600600.614,48.340,48.340,16.113,98.145,37.109
1584600600.618,37.109,42.969,18.066,84.473,-7.812
1584600600.622,8.789,38.574,20.996,-27.344,-27.832
1584600600.626,14.648,40.527,20.020,-39.551,39.551
1584600600.630,42.480,43.457,19.043,70.312,41.992
1584600600.634,52.246,41.992,18.555,103.516,35.645
1584600600.638,31.738,43.457,16.113,-0.488,12.207
1584600600.642,16.113,40.039,16.602,-57.617,23.438
1584600600.645,39.062,35.156,22.949,44.922,38.574
1584600600.649,48.828,36.621,28.320,124.512,58.594
1584600600.653,16.602,36.133,22.949,35.645,55.176
1584600600.657,2.930,36.621,17.090,-50.781,19.043
1584600600.661,28.809,36.133,18.555,9.766,23.926
1584600600.665,46.875,38.574,19.531,106.934,62.500
1584600600.669,27.344,36.133,20.508,57.129,38.574
1584600600.673,9.277,30.273,20.508,-50.781,49.316
1584600600.677,23.438,30.762,20.996,-24.902,49.805
1584600600.681,42.969,33.691,21.973,93.750,16.113
1584600600.685,27.344,35.156,19.043,85.938,-6.348
1584600600.688,-0.488,25.391,20.020,-35.156,12.207
1584600600.692,3.906,23.438,26.367,-52.246,104.492
1584600600.696,30.273,31.738,26.855,66.895,64.941
1584600600.700,41.992,30.273,22.461,105.469,32.715
1584600600.704,18.555,26.855,20.508,0.488,17.578
1584600600.708,10.254,30.762,22.461,-55.664,12.207
1584600600.712,47.852,40.039,24.414,38.086,47.363
1584600600.716,53.711,38.574,25.391,117.188,37.598
1584600600.720,23.926,32.715,24.414,41.016,35.156
1584600600.724,3.418,32.227,21.973,-49.316,-0.977
1584600600.727,27.344,36.133,23.926,10.742,-46.387
1584600600.731,44.434,41.504,24.902,107.422,-11.719
1584600600.735,29.785,35.156,27.344,63.477,20.508
1584600600.739,2.930,25.879,30.762,-32.715,1.465
1584600600.743,6.348,26.367,27.832,-19.531,-1.465
1584600600.747,43.457,30.762,26.367,93.262,32.715
1584600600.751,31.250,28.320,28.320,104.004,52.734
1584600600.755,0.488,23.926,27.832,-4.883,40.527
1584600600.759,3.418,26.367,25.391,-39.551,63.477
1584600600.763,32.715,29.297,30.273,63.477,83.008
1584600600.767,44.922,27.344,32.715,116.699,33.691
1584600600.770,26.855,25.879,31.250,21.484,38.086
1584600600.774,9.766,28.320,33.203,-48.340,17.090
1584600600.778,29.785,33.203,33.203,27.344,3.906
1584600600.782,56.641,39.062,33.203,115.234,30.762
1584600600.786,29.297,33.203,35.156,55.664,41.016
1584600600.790,-3.906,25.879,32.227,-41.992,33.691
1584600600.794,18.066,31.738,29.785,-4.395,13.184
1584600600.798,50.293,39.062,32.227,105.469,40.527
1584600600.802,41.992,33.691,31.738,80.566,28.320
1584600600.806,-2.930,26.367,27.832,-35.156,8.789
1584600600.810,-1.953,24.902,25.879,-33.691,27.344
1584600600.813,37.109,24.414,26.367,83.008,39.062
1584600600.817,30.273,24.414,25.391,103.027,-4.883
1584600600.821,1.465,23.438,25.391,-11.230,-23.438
1584600600.825,6.836,22.949,27.832,-54.688,49.805
1584600600.829,28.809,25.391,25.391,55.664,63.965
1584600600.833,31.250,21.484,26.367,117.676,6.836
1584600600.837,8.789,17.090,25.879,20.020,37.109
1584600600.841,-0.977,18.066,23.438,-60.059,62.500
1584600600.845,28.809,24.414,26.367,13.672,-20.996
1584600600.849,48.828,28.320,29.297,109.863,-13.184
1584600600.852,17.090,21.484,28.320,53.711,34.180
1584600600.856,-20.508,19.043,25.879,-48.340,14.160
1584600600.860,0.488,23.926,26.367,-13.672,7.812
1584600600.864,36.133,24.414,27.832,99.609,20.508
1584600600.868,26.855,21.484,26.855,77.637,-10.254
1584600600.872,0.000,24.902,21.973,-40.039,-22.949
1584600600.876,15.625,23.926,19.531,-46.387,25.391
1584600600.880,48.340,24.414,22.461,75.684,36.621
1584600600.884,62.988,30.273,23.926,122.070,-6.348
1584600600.888,36.621,33.691,19.531,15.137,8.301
1584600600.892,8.301,35.156,18.066,-48.340,89.844
1584600600.895,20.996,26.855,27.832,40.527,63.965
1584600600.899,36.621,22.461,33.203,114.258,55.664
1584600600.903,25.879,25.879,29.785,30.273,56.152
1584600600.907,5.859,26.367,27.832,-54.199,-48.828
1584600600.911,25.391,30.273,27.832,12.695,-13.184
1584600600.915,44.922,30.762,27.344,103.516,77.148
1584600600.919,16.602,25.879,25.879,54.199,56.641
1584600600.923,-4.395,23.926,23.926,-47.363,9.766
1584600600.927,16.113,23.438,27.832,-27.344,-47.852
1584600600.931,50.293,27.344,27.832,87.402,-46.387
1584600600.935,31.738,29.785,26.855,90.820,19.043
1584600600.938,2.441,28.320,28.809,-14.648,42.969
1584600600.942,10.742,29.785,33.203,-31.738,34.668
1584600600.946,28.809,29.785,35.645,75.684,-1.465
1584600600.950,36.133,29.785,31.250,120.117,-20.020
1584600600.954,17.578,28.809,26.855,15.137,-0.488
1584600600.958,8.789,30.762,23.926,-52.246,41.016
1584600600.962,34.668,36.133,25.879,35.156,-14.160
1584600600.966,53.223,30.762,30.762,114.746,-57.617
1584600600.970,28.320,21.973,28.809,47.363,42.480
1584600600.974,-0.488,21.973,25.879,-51.270,70.801
1584600600.977,14.648,25.391,28.320,-9.766,8.789
1584600600.981,35.645,26.855,32.227,103.516,-15.137
1584600600.985,16.602,23.438,27.344,69.336,4.395
1584600600.989,-2.441,23.438,24.414,-41.504,55.176
1584600600.993,12.695,27.832,25.391,-31.738,42.480
1584600600.997,38.574,30.273,26.367,83.984,61.523
1584600601.001,34.668,31.250,24.902,100.586,20.020
1584600601.005,0.977,23.438,24.902,-14.648,5.859
1584600601.009,1.465,17.578,26.367,-50.293,56.641
1584600601.013,34.668,25.879,26.855,56.152,54.199
1584600601.017,48.828,28.809,30.273,107.422,83.496
1584600601.020,22.949,23.438,33.691,12.695,75.684
1584600601.024,-0.977,21.484,30.273,-50.781,106.445
1584600601.028,29.297,28.809,31.250,31.738,27.832
1584600601.032,50.781,28.809,33.691,118.164,-17.578
1584600601.036,37.109,22.949,30.273,58.105,81.055
1584600601.040,7.812,22.461,29.785,-36.621,37.598
1584600601.044,7.812,23.926,30.273,-5.371,4.395
1584600601.048,31.738,31.250,27.832,98.145,37.109
1584600601.052,28.320,29.297,26.855,80.566,6.836
1584600601.056,-4.883,22.949,28.320,-36.133,2.441
1584600601.060,-3.418,23.438,26.855,-38.086,14.648
1584600601.063,39.551,25.879,29.785,81.543,71.777
1584600601.067,40.039,27.344,32.715,103.027,42.969
1584600601.071,8.789,25.879,30.273,-5.859,-17.090
1584600601.075,13.184,26.367,31.738,-44.434,2.930
1584600601.079,41.504,30.273,35.156,61.035,33.691
1584600601.083,47.363,30.273,32.715,122.559,45.898
1584600601.087,18.555,22.949,29.785,31.738,32.715
1584600601.091,2.930,20.508,27.344,-46.875,32.715
1584600601.095,29.297,28.320,29.785,21.484,56.152
1584600601.099,55.176,31.738,34.668,111.816,14.648
1584600601.102,36.621,29.297,34.668,57.617,20.996
1584600601.106,4.395,27.344,30.273,-42.480,27.344
1584600601.110,27.344,29.785,31.250,-11.230,8.301
1584600601.114,58.105,37.109,34.180,101.562,41.016
1584600601.118,29.297,32.715,31.738,93.262,65.918
1584600601.122,-12.207,21.973,29.297,-24.414,-8.301
1584600601.126,-5.371,21.973,33.203,-40.039,-39.551
1584600601.130,31.738,28.320,37.598,71.289,9.766
1584600601.134,40.039,25.879,35.645,101.562,-2.930
1584600601.138,12.207,24.902,36.133,-4.883,21.484
1584600601.142,-2.930,28.809,37.598,-54.688,33.203
1584600601.145,16.602,36.133,29.785,37.109,-4.395
1584600601.149,29.785,29.785,22.949,100.586,21.973
1584600601.153,12.207,22.949,21.973,16.113,53.223
1584600601.157,0.977,29.785,22.461,-66.895,65.430
1584600601.161,24.414,28.809,28.809,-0.488,20.996
1584600601.165,43.945,26.367,34.180,101.074,4.883
1584600601.169,16.602,24.414,27.832,55.176,29.297
1584600601.173,-7.324,21.484,29.297,-48.340,4.883
1584600601.177,5.371,24.902,30.762,-26.855,9.766
1584600601.181,26.855,28.320,21.973,88.379,9.766
1584600601.185,27.832,23.438,19.531,85.938,38.086
1584600601.188,1.465,19.043,18.555,-27.344,68.848
1584600601.192,2.441,17.578,20.508,-40.039,46.875
1584600601.196,44.922,18.066,23.438,81.055,20.508
1584600601.200,45.410,21.973,23.438,125.488,42.480
1584600601.204,1.465,27.832,19.531,2.441,14.648
1584600601.208,-18.555,29.785,21.973,-81.055,6.836
1584600601.212,9.277,28.809,23.926,1.465,1.465
1584600601.216,29.297,31.738,20.020,83.496,-33.691
1584600601.220,13.184,35.156,19.531,18.555,3.906
1584600601.224,3.906,32.227,16.113,-66.895,62.012
1584600601.227,30.273,28.320,18.066,-13.184,22.949
1584600601.231,48.340,28.320,23.438,97.168,18.555
1584600601.235,27.832,22.461,21.973,68.359,35.156
1584600601.239,6.836,20.996,20.020,-41.016,21.973
1584600601.243,16.602,20.508,22.949,-40.039,64.453
1584600601.247,32.715,22.461,29.785,77.637,43.945
1584600601.251,13.184,23.926,35.156,100.586,28.809
1584600601.255,-18.066,20.020,34.180,-14.648,9.277
1584600601.259,-5.371,22.949,28.320,-48.828,15.625
1584600601.263,37.598,28.809,26.367,62.988,54.688
1584600601.267,52.734,27.832,29.297,118.652,2.441
1584600601.270,20.020,28.320,27.832,24.414,15.625
1584600601.274,3.906,28.320,28.320,-44.434,36.621
1584600601.278,30.762,31.738,28.809,32.227,26.855
1584600601.282,43.457,31.738,28.809,115.723,28.320
1584600601.286,28.809,26.855,30.762,55.176,38.086
1584600601.290,8.301,25.391,33.691,-44.434,30.273
1584600601.294,25.879,28.809,34.180,-5.371,66.895
1584600601.298,47.852,31.250,32.227,108.887,79.590
1584600601.302,30.762,26.367,29.785,85.938,34.180
1584600601.306,4.395,21.973,24.414,-29.785,20.508
1584600601.310,16.602,25.879,25.391,-27.344,42.969
1584600601.313,46.875,32.227,29.785,85.449,44.434
1584600601.317,42.480,28.809,28.320,107.422,2.441
1584600601.321,17.090,27.832,28.809,2.441,30.273
1584600601.325,14.160,27.344,31.250,-56.152,-0.488
1584600601.329,38.574,29.785,27.832,35.156,-19.531
1584600601.333,47.852,31.738,27.344,104.004,-2.930
1584600601.337,26.855,27.344,27.344,19.043,30.273
1584600601.341,24.414,30.273,25.391,-59.570,2.930
1584600601.345,45.898,36.133,29.785,9.766,-25.879
1584600601.349,43.945,34.180,35.156,102.051,26.367
1584600601.352,15.625,29.297,32.715,47.852,-15.625
1584600601.356,-17.578,29.785,28.320,-49.805,-41.504
1584600601.360,-5.859,33.691,33.203,-19.043,-0.488
1584600601.364,23.926,33.691,38.574,92.773,20.508
1584600601.368,20.508,30.273,36.133,81.543,25.879
1584600601.372,0.488,27.832,32.715,-28.320,28.809
1584600601.376,8.789,32.715,34.180,-40.039,19.531
1584600601.380,33.691,37.598,36.133,68.848,36.133
1584600601.384,29.297,31.250,33.203,103.027,67.871
1584600601.388,4.883,26.367,33.691,-1.953,-3.418
1584600601.392,-0.977,27.832,32.715,-53.711,-20.020
1584600601.395,31.738,34.180,32.715,40.039,24.414
1584600601.399,40.527,39.551,32.227,109.375,-12.695
1584600601.403,8.301,35.156,28.320,30.273,20.996
1584600601.407,-8.789,31.738,26.367,-53.223,69.336
1584600601.411,14.648,34.180,25.879,9.277,46.387
1584600601.415,37.109,36.133,27.832,110.352,51.758
1584600601.419,27.344,33.691,25.879,64.941,60.547
1584600601.423,-4.395,30.762,25.391,-45.410,73.730
1584600601.427,7.812,31.738,30.762,-30.762,52.734
1584600601.431,49.805,37.109,33.203,85.938,63.965
1584600601.435,36.133,36.133,29.297,98.145,49.805
1584600601.438,4.883,32.227,23.438,-14.648,46.875
1584600601.442,8.789,36.133,23.926,-50.293,74.219
1584600601.446,32.227,35.156,27.344,62.500,62.500
1584600601.450,32.227,26.367,27.344,109.375,16.602
1584600601.454,11.719,22.461,25.879,7.812,17.578
1584600601.458,14.160,23.438,26.855,-56.152,35.156
1584600601.462,46.387,25.879,31.250,29.297,4.395
1584600601.466,65.918,28.320,29.297,105.469,28.809
1584600601.470,31.250,25.391,25.391,35.645,84.473
1584600601.474,-2.441,22.949,27.344,-55.664,78.125
1584600601.477,16.602,27.344,28.320,-3.906,35.156
1584600601.481,31.738,24.902,28.320,105.469,-3.906
1584600601.485,13.184,22.461,26.367,66.406,4.395
1584600601.489,-11.230,24.414,23.926,-37.598,18.555
1584600601.493,0.488,23.438,27.832,-18.555,10.742
1584600601.497,29.297,20.508,31.738,94.238,21.484
1584600601.501,23.926,20.020,28.320,98.145,43.945
1584600601.505,4.883,21.484,20.020,-12.207,54.688
1584600601.509,24.414,23.438,18.555,-27.344,-34.180
1584600601.513,60.059,25.391,27.832,84.473,-54.688
1584600601.517,56.152,20.996,39.551,123.535,28.809
1584600601.520,9.277,17.578,40.039,20.020,20.020
1584600601.524,-10.742,19.043,36.133,-62.988,26.855
1584600601.528,20.996,18.066,36.621,8.301,22.461
1584600601.532,41.504,17.090,36.133,108.398,-4.883
1584600601.536,17.578,15.625,33.691,54.199,18.066
1584600601.540,-2.930,18.555,29.785,-48.828,-2.930
1584600601.544,20.020,24.902,31.250,-8.789,-17.578
1584600601.548,43.945,23.926,31.738,105.469,21.484
1584600601.552,35.156,23.926,29.785,85.938,44.434
1584600601.556,14.160,25.879,27.832,-23.438,74.707
1584600601.560,22.461,30.762,29.297,-25.879,65.918
1584600601.563,54.688,32.227,33.203,86.426,17.090
1584600601.567,59.082,22.949,29.297,107.422,17.090
1584600601.571,20.996,18.555,29.297,-0.977,4.395
1584600601.575,8.301,22.461,33.203,-49.805,0.488
1584600601.579,36.133,28.320,33.691,50.781,2.441
1584600601.583,40.039,28.320,34.180,128.418,36.133
1584600601.587,0.977,24.902,27.344,35.645,55.176
1584600601.591,-16.602,26.855,24.414,-55.664,58.105
1584600601.595,19.043,31.738,29.297,18.555,64.453
1584600601.599,43.457,32.715,31.250,116.211,-6.348
1584600601.602,22.461,31.738,26.367,61.035,23.926
1584600601.606,-7.324,27.344,20.020,-46.875,64.453
1584600601.610,15.137,26.367,25.391,-17.578,-0.977
1584600601.614,34.668,28.809,31.250,101.074,5.859
1584600601.618,19.531,28.320,27.344,88.867,57.129
1584600601.622,6.348,32.715,22.949,-26.367,49.805
1584600601.626,8.301,32.227,25.879,-35.645,42.480
1584600601.630,34.180,30.273,29.785,71.777,-15.625
1584600601.634,43.945,33.691,31.738,103.516,-17.090
1584600601.638,21.973,32.227,27.832,-0.977,13.672
1584600601.642,7.812,26.855,25.391,-60.059,7.324
1584600601.645,29.297,29.297,32.227,36.133,23.926
1584600601.649,35.645,35.645,28.320,104.492,53.223
1584600601.653,17.090,37.598,22.461,22.949,73.242
1584600601.657,18.066,34.668,23.438,-43.457,48.340
1584600601.661,46.387,30.273,33.203,30.762,33.203
1584600601.665,46.875,23.926,45.410,119.629,27.832
1584600601.669,-0.488,17.578,36.621,58.594,32.227
1584600601.673,-34.668,16.113,35.645,-63.477,24.414
1584600601.677,-10.742,19.531,46.875,-39.551,16.602
1584600601.681,9.277,20.996,44.434,61.523,38.086
1584600601.685,-7.812,20.020,42.969,56.641,38.086
1584600601.688,-34.668,15.137,44.922,-42.969,-1.465
1584600601.692,-45.410,9.766,46.387,-88.379,13.672
1584600601.696,-31.738,9.766,52.734,12.695,53.223
1584600601.700,-22.461,10.254,60.059,70.801,43.945
1584600601.704,-58.105,4.395,62.012,-30.273,17.578
1584600601.708,-92.285,-4.395,58.594,-111.328,1.953
1584600601.712,-67.383,3.418,56.641,-35.156,45.410
1584600601.716,-43.457,10.254,60.059,49.805,30.762
1584600601.720,-64.941,-1.953,61.035,-21.484,-31.250
1584600601.724,-87.891,-8.789,56.152,-125.488,-17.578
1584600601.727,-67.383,-3.418,59.082,-74.219,81.543
1584600601.731,-49.316,-2.930,66.406,42.480,90.820
1584600601.735,-68.359,-6.836,65.918,15.137,39.062
1584600601.739,-102.539,-13.184,67.871,-92.773,33.691
1584600601.743,-87.891,-11.230,68.848,-92.285,100.586
1584600601.747,-55.664,-4.883,67.871,22.461,122.070
1584600601.751,-62.012,-8.789,68.848,43.457,83.984
1584600601.755,-83.008,-13.184,64.453,-62.012,22.949
1584600601.759,-75.684,-12.695,65.918,-99.609,11.230
1584600601.763,-40.527,-10.254,68.359,7.812,39.551
1584600601.767,-29.785,-8.301,62.500,65.430,-7.324
1584600601.770,-46.875,-9.766,60.059,-20.020,2.441
1584600601.774,-58.594,-14.160,61.035,-75.195,58.594
1584600601.778,-35.645,-16.602,60.059,9.277,39.062
1584600601.782,-14.160,-16.113,59.082,101.562,10.254
1584600601.786,-23.926,-15.625,53.711,45.410,-23.926
1584600601.790,-30.762,-11.230,52.734,-47.852,-53.223
1584600601.794,-4.395,-6.348,57.617,-1.953,-13.672
1584600601.798,24.414,-4.883,55.176,105.469,27.832
1584600601.802,17.090,-7.812,51.758,80.566,22.949
1584600601.806,-7.812,-11.230,46.387,-18.066,28.809
1584600601.810,5.859,-10.254,45.898,-12.695,10.742
1584600601.813,28.809,-5.859,47.852,95.703,5.859
1584600601.817,24.902,-8.301,47.852,121.094,32.227
1584600601.821,15.137,-11.230,45.410,23.926,28.320
1584600601.825,12.695,-7.812,41.992,-20.996,-2.441
1584600601.829,35.645,0.977,44.922,75.684,-43.945
1584600601.833,35.156,-0.488,47.363,147.461,-13.672
1584600601.837,14.160,-6.836,43.457,68.359,32.715
1584600601.841,2.930,-2.930,39.062,-10.742,60.059
1584600601.845,15.137,0.977,41.016,51.758,47.363
1584600601.849,32.715,-1.953,41.992,147.461,22.949
1584600601.852,26.367,-4.395,39.062,105.957,16.113
1584600601.856,11.230,1.465,36.133,3.906,-17.090
1584600601.860,31.250,6.348,38.086,19.531,-19.531
1584600601.864,60.059,10.254,43.457,133.301,37.109
1584600601.868,51.270,13.672,40.039,127.441,27.832
1584600601.872,25.391,12.695,37.598,10.254,7.324
1584600601.876,26.855,15.625,36.133,-10.254,-13.672
1584600601.880,52.734,19.043,35.645,100.586,8.789
1584600601.884,59.570,20.508,35.156,137.207,43.457
1584600601.888,34.668,16.113,28.809,31.738,38.086
1584600601.892,27.344,14.160,26.855,-22.949,15.625
1584600601.895,58.105,20.508,30.762,64.941,7.324
1584600601.899,77.637,26.855,30.762,136.719,12.207
1584600601.903,50.293,23.438,30.273,55.664,25.879
1584600601.907,26.855,19.531,31.250,-32.715,3.418
1584600601.911,53.223,25.879,32.715,31.250,-0.977
1584600601.915,70.312,32.227,34.180,131.348,56.152
1584600601.919,39.062,25.879,27.832,87.891,86.426
1584600601.923,4.395,20.020,22.949,-19.043,108.887
1584600601.927,22.461,21.973,25.391,-6.348,77.637
1584600601.931,56.641,26.367,27.344,109.375,30.273
1584600601.935,53.711,29.297,26.367,114.746,67.871
1584600601.938,30.762,27.344,22.949,3.418,43.945
1584600601.942,39.551,24.902,21.973,-22.461,-36.133
1584600601.946,58.594,27.832,23.438,77.148,3.418
1584600601.950,57.129,32.227,25.391,124.023,38.574
1584600601.954,30.273,32.227,24.902,35.645,51.758
1584600601.958,14.160,27.344,21.484,-31.738,65.918
1584600601.962,44.922,25.391,20.020,45.410,15.137
1584600601.966,60.059,25.391,17.578,123.535,9.766
1584600601.970,35.156,22.461,14.648,47.363,34.180
1584600601.974,17.090,21.484,14.648,-41.016,42.969
1584600601.977,38.574,26.855,20.020,13.184,41.504
1584600601.981,64.453,30.273,22.461,115.723,-39.062
1584600601.985,50.781,28.809,18.066,84.473,-50.781
1584600601.989,11.230,25.391,19.531,-18.066,8.301
1584600601.993,21.973,26.855,25.879,-20.020,15.137
1584600601.997,56.641,34.180,27.344,86.426,24.902
1584600602.001,43.945,33.203,21.973,110.840,15.137
1584600602.005,0.488,24.414,17.090,2.930,-1.953
1584600602.009,-2.441,22.949,16.602,-36.133,-21.973
1584600602.013,38.574,28.320,19.043,66.895,-15.625
1584600602.017,45.898,27.832,18.555,117.188,26.855
1584600602.020,16.113,22.949,17.090,19.531,1.953
1584600602.024,3.418,28.320,18.066,-49.316,1.465
1584600602.028,35.156,31.738,23.438,29.785,55.176
1584600602.032,57.129,26.855,26.367,123.535,127.441
1584600602.036,32.227,24.902,22.949,63.965,93.750
1584600602.040,9.277,27.832,21.484,-34.180,24.414
1584600602.044,28.320,34.668,25.879,0.977,55.176
1584600602.048,57.129,37.109,31.738,103.027,79.102
1584600602.052,51.758,34.668,26.855,84.473,87.402
1584600602.056,23.438,31.250,21.484,-24.902,35.645
1584600602.060,26.367,28.809,25.391,-26.367,-17.090
1584600602.063,52.734,33.691,27.344,81.543,-4.395
1584600602.067,49.316,33.691,27.832,95.215,-27.832
1584600602.071,18.066,24.414,26.855,-3.906,-50.781
1584600602.075,-2.441,24.902,26.367,-39.062,-25.391
1584600602.079,24.414,34.180,26.855,56.152,31.738
1584600602.083,41.504,33.691,24.902,117.676,56.152
1584600602.087,9.766,27.344,22.949,32.227,15.625
1584600602.091,-4.395,28.320,23.438,-45.898,21.484
1584600602.095,20.508,32.715,24.414,16.602,76.660
1584600602.099,39.551,33.203,22.461,106.934,47.363
1584600602.102,23.438,30.762,23.438,59.570,3.418
1584600602.106,-2.441,24.902,21.484,-37.598,-8.789
1584600602.110,13.672,27.344,24.902,-16.113,-6.348
1584600602.114,44.922,35.156,25.879,89.355,10.254
1584600602.118,34.668,33.691,20.020,85.449,-18.555
1584600602.122,2.441,27.344,20.996,-20.996,27.344
1584600602.126,10.742,29.297,25.879,-37.598,16.113
1584600602.130,45.898,37.598,25.391,62.500,16.602
1584600602.134,44.434,34.668,20.508,91.797,24.414
1584600602.138,15.625,28.320,19.043,1.465,42.969
1584600602.142,19.531,25.391,19.531,-39.551,104.004
1584600602.145,61.523,24.902,21.484,50.293,84.473
1584600602.149,64.453,29.297,20.020,117.188,76.660
1584600602.153,6.348,28.320,11.719,11.719,63.477
1584600602.157,-14.648,26.367,10.254,-82.031,48.828
1584600602.161,21.484,31.738,17.090,-10.254,73.730
1584600602.165,45.898,34.180,18.555,94.238,46.875
1584600602.169,31.738,24.902,18.555,60.059,79.590
1584600602.173,-1.465,20.508,18.555,-35.645,78.613
1584600602.177,20.996,23.438,19.531,-21.484,14.648
1584600602.181,55.664,25.391,26.367,84.473,-3.418
1584600602.185,46.387,23.926,23.926,89.355,-19.531
1584600602.188,9.766,18.066,18.555,-18.066,27.344
1584600602.192,4.883,21.484,22.949,-46.387,31.250
1584600602.196,38.086,26.367,26.855,62.500,-1.953
1584600602.200,44.434,24.902,24.414,109.375,-11.719
1584600602.204,6.836,26.367,20.508,12.207,23.438
1584600602.208,-6.348,23.438,22.949,-45.410,47.363
1584600602.212,31.738,23.926,26.367,30.762,7.324
1584600602.216,50.293,31.738,24.902,108.398,-12.695
1584600602.220,20.996,30.762,21.484,43.457,-7.324
1584600602.224,-3.906,24.902,20.508,-49.316,-11.719
1584600602.227,19.043,26.855,21.973,-7.812,42.969
1584600602.231,49.316,27.832,20.508,86.426,57.129
1584600602.235,38.086,26.367,20.020,62.988,58.105
1584600602.239,9.277,27.344,21.973,-31.250,79.102
1584600602.243,26.855,29.785,22.949,-32.227,4.395
1584600602.247,54.199,31.738,25.879,68.359,-38.574
1584600602.251,47.363,29.785,22.949,84.473,2.930
1584600602.255,24.414,28.809,19.043,-14.648,38.574
1584600602.259,13.184,27.344,22.949,-51.270,73.730
1584600602.263,38.574,28.320,26.367,41.016,53.711
1584600602.267,42.480,30.762,26.367,97.168,49.316
1584600602.270,13.184,28.809,22.949,17.578,30.273
1584600602.274,5.371,29.785,21.484,-50.293,-9.277
1584600602.278,34.668,37.109,22.949,10.742,-33.691
1584600602.282,44.434,39.551,25.879,98.145,7.324
1584600602.286,15.625,32.715,26.367,51.270,35.156
1584600602.290,-10.254,28.320,24.414,-41.992,12.207
1584600602.294,16.113,32.715,26.855,-10.742,24.414
1584600602.298,42.969,39.062,30.273,93.262,36.133
1584600602.302,18.555,36.621,26.367,76.660,36.133
1584600602.306,-4.395,27.344,23.926,-25.879,35.645
1584600602.310,7.812,27.344,26.367,-32.715,57.617
1584600602.313,40.039,33.203,24.414,69.824,72.266
1584600602.317,39.551,29.785,26.367,100.586,61.035
1584600602.321,0.977,26.367,27.832,-0.977,33.203
1584600602.325,-0.977,30.273,24.902,-53.711,38.086
1584600602.329,36.133,30.762,28.320,40.039,59.082
1584600602.333,43.945,26.367,30.273,102.051,20.508
1584600602.337,20.020,30.762,31.738,24.414,40.527
1584600602.341,5.371,35.645,29.785,-47.852,83.496
1584600602.345,21.973,30.762,27.344,6.348,67.383
1584600602.349,45.410,30.762,29.785,94.727,68.359
1584600602.352,37.598,35.156,27.344,54.688,18.555
1584600602.356,5.859,29.785,27.832,-38.086,-35.645
1584600602.360,20.508,28.809,35.156,-17.578,20.020
1584600602.364,52.246,35.645,37.598,85.938,62.988
1584600602.368,49.805,44.434,38.574,82.520,63.477
1584600602.372,19.531,41.992,34.668,-21.484,35.645
1584600602.376,7.812,29.297,24.414,-57.129,-2.441
1584600602.380,36.133,32.227,28.809,43.945,-8.301
1584600602.384,36.133,39.062,42.480,98.633,8.301
1584600602.388,-13.184,31.250,32.715,-1.953,49.805
1584600602.392,-34.180,23.926,28.320,-67.383,68.359
1584600602.395,6.348,34.180,41.016,12.207,45.410
1584600602.399,20.996,40.527,36.621,79.102,27.832
1584600602.403,-14.160,30.273,38.574,10.742,3.906
1584600602.407,-46.875,24.414,38.574,-84.961,-10.254
1584600602.411,-37.598,28.809,36.621,-53.223,38.086
1584600602.415,-13.184,30.762,37.109,30.762,47.852
1584600602.419,-40.039,32.227,32.227,-5.859,22.949
1584600602.423,-84.473,30.273,28.809,-111.816,32.715
1584600602.427,-76.172,35.645,29.297,-124.023,20.020
1584600602.431,-51.758,46.875,34.668,-32.227,28.320
1584600602.435,-68.359,45.898,30.273,-24.902,40.039
1584600602.438,-103.027,37.109,24.414,-124.023,-11.719
1584600602.442,-96.191,38.574,26.367,-152.344,15.625
1584600602.446,-62.500,45.410,28.809,-63.477,72.266
1584600602.450,-60.547,45.898,29.297,-17.578,84.473
1584600602.454,-73.730,41.992,24.902,-80.566,50.293
1584600602.458,-71.289,42.969,20.508,-128.906,27.344
1584600602.462,-38.574,45.898,19.531,-56.152,25.391
1584600602.466,2.930,49.805,20.508,44.922,56.641
1584600602.470,-8.301,42.480,21.973,1.953,82.520
1584600602.474,-29.297,34.180,22.461,-90.332,30.762
1584600602.477,5.859,40.039,29.297,-39.551,-3.906
1584600602.481,41.504,49.805,29.297,83.496,0.977
1584600602.485,23.926,41.992,20.508,66.406,22.949
1584600602.489,-11.230,27.344,17.578,-33.203,-11.719
1584600602.493,6.348,27.344,19.043,-27.832,-50.293
1584600602.497,52.734,31.738,21.973,81.543,-33.691
1584600602.501,50.293,28.320,19.531,104.004,36.133
1584600602.505,15.137,25.391,14.648,0.488,92.285
1584600602.509,16.113,29.297,18.066,-28.809,70.801
1584600602.513,62.012,30.762,22.949,69.336,-1.465
1584600602.517,73.730,28.320,19.531,126.953,12.207
1584600602.520,41.992,28.809,16.113,50.781,20.020
1584600602.524,34.180,28.320,17.578,-17.090,33.691
1584600602.528,60.059,27.344,20.020,52.246,39.551
1584600602.532,78.125,26.367,26.367,138.672,10.254
1584600602.536,65.918,26.367,27.344,93.750,27.344
1584600602.540,44.434,24.902,27.832,7.324,7.812
1584600602.544,63.965,27.344,29.297,29.297,12.695
1584600602.548,98.633,33.691,25.879,127.441,66.895
1584600602.552,88.867,30.273,26.367,122.070,97.168
1584600602.556,53.711,26.855,29.297,20.996,46.387
1584600602.560,55.176,25.879,29.297,4.883,27.344
1584600602.563,93.750,27.832,29.785,97.656,3.418
1584600602.567,96.191,29.297,27.832,123.047,8.301
1584600602.571,63.965,26.855,22.461,37.109,-10.742
1584600602.575,64.941,31.250,22.949,-6.348,-21.973
1584600602.579,91.309,31.250,24.902,74.707,14.648
1584600602.583,94.238,24.902,26.855,139.160,45.898
1584600602.587,67.383,23.926,25.879,69.336,-32.715
1584600602.591,45.410,27.344,26.367,-2.930,-79.590
1584600602.595,64.453,26.855,27.344,42.969,2.441
1584600602.599,75.684,26.367,27.344,132.324,5.859
1584600602.602,50.293,25.391,27.344,97.168,14.648
1584600602.606,28.809,26.367,24.902,1.465,2.441
1584600602.610,41.016,27.832,24.902,13.184,18.555
1584600602.614,71.777,29.297,29.785,116.699,9.277
1584600602.618,71.777,31.250,30.762,120.117,-20.508
1584600602.622,38.574,30.273,23.926,16.602,-9.277
1584600602.626,36.621,27.344,23.926,-16.602,18.555
1584600602.630,63.965,32.227,28.320,78.613,81.055
1584600602.634,67.383,36.621,31.738,126.953,79.590
1584600602.638,36.133,29.297,33.203,40.039,99.121
1584600602.642,28.320,24.414,29.297,-19.043,96.191
1584600602.645,62.500,27.832,30.273,51.270,54.688
1584600602.649,80.078,32.227,28.320,119.629,52.246
1584600602.653,49.805,33.203,26.367,52.246,20.020
1584600602.657,24.414,32.715,30.762,-30.273,-39.062
1584600602.661,52.734,33.691,29.297,13.672,-12.695
1584600602.665,72.754,39.062,26.367,104.004,40.527
1584600602.669,48.828,37.598,27.344,77.148,60.059
1584600602.673,20.508,26.367,28.320,-15.137,61.523
1584600602.677,35.645,24.414,26.367,-16.602,26.367
1584600602.681,67.871,31.738,26.367,82.520,36.621
1584600602.685,60.059,35.156,31.250,97.656,42.480
1584600602.688,30.273,31.738,32.715,-0.977,13.672
1584600602.692,27.344,31.250,28.320,-28.320,26.367
1584600602.696,57.129,30.762,27.344,59.082,-3.906
1584600602.700,68.848,31.250,29.785,101.074,15.137
1584600602.704,25.391,29.297,30.273,18.555,62.500
1584600602.708,-0.977,25.879,26.367,-44.434,9.766
1584600602.712,25.879,29.297,25.879,25.879,-10.742
1584600602.716,47.363,27.832,30.762,110.352,10.254
1584600602.720,25.879,25.879,30.762,55.176,31.738
1584600602.724,5.371,25.879,28.320,-37.109,31.738
1584600602.727,34.668,24.902,29.785,-0.488,21.484
1584600602.731,61.523,28.809,31.250,104.004,26.855
1584600602.735,34.180,26.855,30.273,85.938,59.570
1584600602.739,-6.836,19.531,30.762,-13.184,72.266
1584600602.743,0.488,21.973,29.297,-26.855,47.852
1584600602.747,39.062,31.250,29.785,68.359,27.344
1584600602.751,46.387,31.250,32.715,97.168,-21.973
1584600602.755,12.207,24.902,29.297,0.000,-14.648
1584600602.759,4.883,26.367,27.344,-43.457,-29.297
1584600602.763,34.180,33.203,27.832,40.527,-28.809
1584600602.767,49.805,28.320,30.273,104.492,32.715
1584600602.770,22.949,21.484,33.691,33.203,40.039
1584600602.774,2.930,22.949,34.668,-39.551,-0.977
1584600602.778,34.668,28.320,35.156,27.344,0.488
1584600602.782,56.641,30.762,35.645,109.863,18.066
1584600602.786,24.902,29.785,36.133,56.641,43.457
1584600602.790,1.953,25.879,36.621,-31.738,15.137
1584600602.794,34.180,24.414,37.109,-5.371,-10.742
1584600602.798,60.059,26.367,40.039,92.285,60.059
1584600602.802,47.363,24.902,37.109,81.543,107.422
1584600602.806,17.578,21.484,31.250,-12.695,65.918
1584600602.810,19.043,22.461,31.738,-24.414,16.602
1584600602.813,51.270,30.762,33.691,72.266,21.973
1584600602.817,49.316,31.250,30.762,104.492,34.668
1584600602.821,11.230,23.926,29.785,9.766,14.160
1584600602.825,-0.977,25.391,33.691,-40.039,-2.441
1584600602.829,33.691,26.367,32.227,41.992,43.457
1584600602.833,48.828,26.855,31.250,106.445,36.621
1584600602.837,22.949,26.855,35.156,33.203,36.133
1584600602.841,1.465,25.391,34.180,-44.922,22.949
1584600602.845,22.461,26.855,31.250,6.836,-3.418
1584600602.849,54.199,28.320,35.645,98.145,41.992
1584600602.852,38.574,26.855,36.621,66.895,66.406
1584600602.856,10.742,27.344,34.180,-23.438,67.871
1584600602.860,18.555,29.297,35.645,-13.672,76.660
1584600602.864,47.363,28.809,34.180,88.379,49.316
1584600602.868,44.922,30.762,34.180,93.750,26.855
1584600602.872,9.277,23.926,33.203,-8.789,37.598
1584600602.876,7.324,19.043,32.715,-33.691,30.762
1584600602.880,45.410,22.949,36.133,61.523,-5.859
1584600602.884,52.734,25.879,32.715,102.051,-11.719
1584600602.888,14.648,18.066,28.320,21.484,25.391
1584600602.892,2.441,16.602,30.762,-39.551,-0.977
1584600602.895,40.527,27.344,36.133,35.156,-16.602
1584600602.899,52.246,31.250,35.645,112.793,21.484
1584600602.903,24.414,23.438,34.668,50.293,51.758
1584600602.907,2.930,22.461,33.691,-35.156,70.801
1584600602.911,24.414,33.203,31.738,2.930,33.203
1584600602.915,58.594,33.203,31.738,95.215,28.320
1584600602.919,40.527,28.320,29.785,63.477,44.922
1584600602.923,4.395,28.809,30.273,-29.785,66.406
1584600602.927,19.531,27.832,32.227,-22.949,66.406
1584600602.931,52.246,28.320,31.738,76.172,-6.348
1584600602.935,50.293,27.832,29.785,95.215,8.789
1584600602.938,8.789,24.414,27.344,-7.812,28.320
1584600602.942,6.348,26.367,27.832,-45.898,36.621
1584600602.946,46.875,28.809,31.250,52.246,45.898
1584600602.950,46.875,24.902,29.297,103.516,1.953
1584600602.954,13.184,20.020,25.391,21.973,-38.086
1584600602.958,-3.906,23.926,24.902,-41.016,9.766
1584600602.962,21.484,31.250,24.414,21.973,57.129
1584600602.966,49.805,29.785,30.273,101.074,52.246
1584600602.970,25.879,23.926,35.156,50.293,20.508
1584600602.974,-10.742,19.531,30.762,-39.062,-10.742
1584600602.977,10.742,23.926,23.926,-8.301,10.254
1584600602.981,51.270,27.832,20.996,86.426,-5.859
1584600602.985,36.133,28.320,21.484,71.777,-36.621
1584600602.989,3.418,29.297,20.996,-20.508,34.180
1584600602.993,5.371,24.414,23.926,-30.762,64.453
1584600602.997,36.621,26.367,28.320,65.918,31.250
1584600603.001,36.621,24.414,30.273,93.262,21.484
1584600603.005,0.977,18.066,29.785,1.465,20.508
1584600603.009,0.977,17.578,31.738,-40.527,28.320
1584600603.013,31.738,20.020,34.668,40.039,17.090
1584600603.017,40.039,21.484,32.227,96.191,26.367
1584600603.020,14.648,21.973,25.879,21.973,-16.602
1584600603.024,0.977,23.438,24.414,-45.410,-16.602
1584600603.028,28.320,26.855,31.250,9.277,39.551
1584600603.032,53.711,28.809,35.156,92.285,26.367
1584600603.036,26.367,24.414,34.180,56.641,7.324
1584600603.040,-7.324,22.461,31.738,-24.902,51.758
1584600603.044,19.531,25.879,33.691,-3.906,43.457
1584600603.048,47.852,24.414,37.109,93.750,8.789
1584600603.052,28.809,18.066,33.691,83.984,11.719
1584600603.056,-7.324,14.648,33.203,-18.555,11.719
1584600603.060,-0.977,20.020,31.250,-30.762,-6.348
1584600603.063,39.062,26.367,28.809,66.895,-0.488
1584600603.067,39.551,27.344,27.344,97.656,3.906
1584600603.071,10.254,25.391,26.855,10.254,49.316
1584600603.075,12.207,28.809,31.250,-38.086,101.562
1584600603.079,47.852,31.738,35.645,44.922,60.547
1584600603.083,58.594,27.344,34.668,111.328,10.742
1584600603.087,25.879,27.344,29.785,40.039,7.324
1584600603.091,3.418,25.391,30.762,-33.691,35.156
1584600603.095,26.367,24.414,33.203,8.789,36.621
1584600603.099,50.781,24.414,33.203,99.121,-23.438
1584600603.102,29.297,21.484,33.203,71.289,35.645
1584600603.106,-7.812,18.555,28.320,-24.414,69.824
1584600603.110,16.602,20.020,26.367,-16.113,-8.301
1584600603.114,55.664,22.461,28.809,81.543,27.344
1584600603.118,43.945,24.414,28.809,83.496,51.270
1584600603.122,8.789,22.461,25.879,-18.555,-16.113
1584600603.126,8.789,24.414,25.391,-42.480,-14.160
1584600603.130,42.480,31.738,26.367,52.734,-1.953
1584600603.134,44.922,29.785,25.391,91.797,12.207
1584600603.138,11.230,20.020,27.832,4.883,38.086
1584600603.142,1.465,17.090,28.320,-47.363,-1.953
1584600603.145,20.508,21.973,28.809,28.320,-2.930
1584600603.149,32.715,24.902,28.320,103.027,81.543
1584600603.153,8.789,22.461,26.367,41.504,77.637
1584600603.157,-13.184,19.531,26.855,-43.945,4.883
1584600603.161,14.648,22.949,29.785,-8.789,30.762
1584600603.165,43.457,28.320,33.203,85.449,53.711
1584600603.169,21.973,29.785,31.738,66.406,36.621
1584600603.173,-13.184,26.855,29.297,-30.762,46.875
1584600603.177,2.441,22.949,28.809,-30.273,20.020
1584600603.181,51.758,22.461,30.273,80.566,-0.977
1584600603.185,58.594,26.367,33.691,111.816,46.387
1584600603.188,-3.418,20.996,36.621,-0.977,73.730
1584600603.192,-25.879,15.625,33.691,-55.176,58.594
1584600603.196,18.066,19.043,31.738,41.504,17.090
1584600603.200,37.109,16.602,34.180,103.027,14.648
1584600603.204,11.719,13.184,34.668,28.809,37.109
1584600603.208,-4.883,17.578,33.691,-43.945,36.621
1584600603.212,25.879,26.855,33.203,18.066,64.453
1584600603.216,40.039,30.273,34.180,98.145,81.543
1584600603.220,15.137,24.902,36.133,50.781,62.012
1584600603.224,-4.395,19.531,35.156,-40.527,60.059
1584600603.227,18.555,21.973,37.598,-12.695,41.992
1584600603.231,44.922,25.879,37.109,91.309,66.895
1584600603.235,27.832,23.926,31.250,76.172,58.105
1584600603.239,-4.883,27.344,26.855,-22.461,25.391
1584600603.243,9.766,32.715,26.855,-29.785,-7.812
1584600603.247,43.945,32.715,28.320,74.707,40.527
1584600603.251,35.156,30.273,31.250,103.516,59.082
1584600603.255,1.953,28.809,34.668,7.812,11.719
1584600603.259,-0.977,26.367,32.715,-36.133,18.555
1584600603.263,37.109,26.367,29.785,47.852,-6.836
1584600603.267,47.363,28.320,31.250,108.398,18.555
1584600603.270,17.090,26.855,32.227,32.715,23.926
1584600603.274,1.465,25.391,31.738,-40.039,22.461
1584600603.278,25.879,29.785,32.715,20.020,35.156
1584600603.282,52.246,35.156,34.668,109.375,58.594
1584600603.286,32.227,28.320,33.203,65.430,76.172
1584600603.290,-3.906,21.484,29.785,-28.809,-31.738
1584600603.294,15.625,26.367,32.715,-5.859,2.930
1584600603.298,47.363,28.320,36.621,95.215,41.016
1584600603.302,30.762,25.879,34.180,88.379,-8.301
1584600603.306,-3.418,24.414,30.762,-9.766,-25.879
1584600603.310,8.789,28.320,30.273,-26.855,9.766
1584600603.313,45.898,34.180,32.715,70.801,55.176
1584600603.317,43.457,34.180,32.227,98.145,16.602
1584600603.321,10.254,29.297,26.855,4.883,20.508
1584600603.325,-6.836,31.250,27.344,-39.062,52.734
1584600603.329,34.668,37.109,34.180,40.039,25.879
1584600603.333,56.152,32.715,37.109,109.375,0.000
1584600603.337,23.438,27.832,32.715,43.945,19.043
1584600603.341,6.836,30.273,27.344,-37.109,-11.719
1584600603.345,39.062,33.203,29.297,9.277,-5.859
1584600603.349,52.734,29.785,30.273,96.191,62.012
1584600603.352,22.949,24.414,28.809,62.988,48.340
1584600603.356,-7.324,23.438,29.297,-30.273,4.883
1584600603.360,5.371,28.809,33.203,-23.926,1.465
1584600603.364,41.992,31.738,34.180,81.543,14.160
1584600603.368,30.273,26.855,32.715,89.355,46.387
1584600603.372,-5.371,20.020,32.227,-11.230,60.547
1584600603.376,-0.977,20.020,34.668,-39.062,21.973
1584600603.380,26.855,24.414,32.715,54.199,38.086
1584600603.384,35.645,27.344,31.250,103.516,56.152
1584600603.388,0.488,25.879,33.203,16.113,36.621
1584600603.392,-8.301,22.949,33.203,-46.875,20.996
1584600603.395,35.156,25.391,36.621,28.809,-2.930
1584600603.399,55.664,32.227,39.551,105.469,18.555
1584600603.403,29.297,33.691,37.109,47.363,-14.160
1584600603.407,0.488,29.297,34.180,-38.574,-41.016
1584600603.411,15.137,25.879,37.109,-5.371,43.457
1584600603.415,32.227,22.949,42.480,87.891,43.945
1584600603.419,19.043,20.508,43.945,66.406,-1.953
1584600603.423,-5.371,21.484,42.969,-23.926,2.441
1584600603.427,12.207,24.414,36.621,-23.438,6.836
1584600603.431,43.945,25.391,35.645,71.289,-3.906
1584600603.435,35.156,28.320,32.227,90.820,41.016
1584600603.438,2.930,24.902,27.344,-2.441,96.680
1584600603.442,7.324,21.484,30.762,-39.551,82.520
1584600603.446,47.852,25.391,31.738,45.410,57.617
1584600603.450,57.129,27.344,31.250,99.121,52.734
1584600603.454,23.438,25.879,33.203,30.273,75.195
1584600603.458,11.230,25.879,35.645,-36.133,9.277
1584600603.462,42.480,29.297,34.668,23.926,26.367
1584600603.466,62.012,34.180,36.621,107.910,73.242
1584600603.470,34.668,28.809,38.086,57.617,41.504
1584600603.474,5.371,22.461,34.668,-30.762,-2.441
1584600603.477,26.367,27.832,33.203,-1.953,0.488
1584600603.481,56.152,29.785,31.738,93.750,8.789
1584600603.485,38.086,23.438,29.297,79.590,30.273
1584600603.489,2.441,21.484,27.832,-19.531,49.316
1584600603.493,14.160,22.949,28.320,-34.668,16.113
1584600603.497,38.086,26.855,30.273,65.918,3.906
1584600603.501,39.062,28.320,29.785,100.586,39.551
1584600603.505,12.695,24.414,30.762,8.789,58.594
1584600603.509,0.488,25.391,35.645,-37.598,65.430
1584600603.513,34.180,33.203,37.109,43.945,5.859
1584600603.517,47.363,36.133,31.738,108.887,11.719
1584600603.520,19.043,29.785,23.926,37.109,83.496
1584600603.524,-1.953,23.438,24.414,-45.898,44.434
1584600603.528,26.855,25.879,26.367,10.742,61.523
1584600603.532,48.340,30.273,26.855,110.352,96.680
1584600603.536,23.926,27.832,28.809,66.406,57.617
1584600603.540,-5.371,25.879,29.297,-34.180,11.230
1584600603.544,9.766,31.250,28.809,-19.531,-1.465
1584600603.548,37.598,31.738,28.320,83.496,61.035
1584600603.552,28.809,28.809,27.832,84.473,44.434
1584600603.556,2.441,30.762,29.297,-17.578,-5.371
1584600603.560,5.371,33.691,27.344,-38.086,9.277
1584600603.563,43.945,32.715,24.414,60.059,18.555
1584600603.567,41.992,26.855,24.414,98.633,-66.406
1584600603.571,2.930,22.949,25.391,5.371,-32.227
1584600603.575,-13.672,22.461,26.855,-51.758,33.203
1584600603.579,18.066,29.297,29.785,33.203,29.785
1584600603.583,41.992,30.762,28.320,101.562,50.781
1584600603.587,13.672,26.367,23.926,30.762,67.871
1584600603.591,-6.836,29.297,20.020,-48.340,24.902
1584600603.595,19.043,31.250,22.949,-3.906,13.672
1584600603.599,43.945,28.320,27.832,89.844,31.738
1584600603.602,22.949,27.832,24.902,60.059,40.039
1584600603.606,-14.648,22.949,24.414,-38.574,77.148
1584600603.610,-1.953,21.484,26.855,-27.832,32.227
1584600603.614,36.133,24.414,29.785,76.660,-31.738
1584600603.618,21.973,23.926,28.320,84.473,35.645
1584600603.622,-10.742,23.438,25.879,-17.578,26.855
1584600603.626,-2.930,26.855,27.832,-48.340,-24.902
1584600603.630,27.344,33.691,29.297,44.922,2.441
1584600603.634,33.203,33.203,25.879,91.797,48.340
1584600603.638,7.812,26.855,24.902,7.324,16.602
1584600603.642,0.977,29.785,25.879,-52.246,7.324
1584600603.645,23.438,36.133,29.785,20.508,65.430
1584600603.649,39.062,32.715,32.715,101.074,23.926
1584600603.653,17.090,26.855,28.809,42.480,3.418
1584600603.657,-12.695,23.926,26.367,-47.852,8.789
1584600603.661,12.695,26.367,25.391,-14.160,62.500
1584600603.665,48.828,31.738,26.855,87.402,42.969
1584600603.669,25.879,28.809,27.832,68.848,-18.555
1584600603.673,-12.695,29.297,23.438,-27.344,3.906
1584600603.677,11.230,36.133,22.949,-30.273,-2.930
1584600603.681,49.316,37.598,30.762,71.289,27.344
1584600603.685,35.156,31.738,33.203,92.773,87.891
1584600603.688,-0.488,27.832,26.367,-8.301,74.707
1584600603.692,-1.953,28.809,25.879,-49.316,83.984
1584600603.696,36.621,30.762,30.762,42.969,55.664
1584600603.700,48.828,32.715,30.762,101.562,6.348
1584600603.704,9.766,32.715,27.832,20.508,0.488
1584600603.708,-4.395,34.668,28.320,-50.781,2.930
1584600603.712,23.926,34.180,30.273,11.230,21.484
1584600603.716,48.828,33.203,32.715,95.215,27.344
1584600603.720,25.879,29.785,31.738,43.945,6.836
1584600603.724,-10.254,22.949,27.344,-52.734,-28.809
1584600603.727,12.207,24.414,21.973,-19.043,-19.043
1584600603.731,55.176,31.738,21.484,93.262,40.527
1584600603.735,33.691,30.273,25.879,71.289,13.672
1584600603.739,-21.973,22.949,31.738,-34.668,31.738
1584600603.743,-9.277,20.508,34.180,-41.016,87.402
1584600603.747,35.645,20.996,36.621,66.406,32.227
1584600603.751,29.785,22.461,38.086,101.074,41.992
1584600603.755,-6.348,20.996,38.086,1.953,35.156
1584600603.759,-8.789,15.137,37.109,-49.805,67.383
1584600603.763,28.320,17.090,36.621,36.133,47.363
1584600603.767,42.480,25.879,38.574,100.586,-21.484
1584600603.770,11.230,22.949,33.691,27.832,14.160
1584600603.774,-10.254,17.578,28.320,-45.410,27.344
1584600603.778,19.531,20.996,31.250,6.348,40.039
1584600603.782,44.922,24.902,32.715,95.215,41.992
1584600603.786,22.461,19.043,30.273,61.035,-7.812
1584600603.790,-10.742,15.137,27.832,-36.621,0.488
1584600603.794,9.277,16.113,25.879,-27.832,24.902
1584600603.798,42.480,18.555,27.832,77.637,39.062
1584600603.802,25.879,20.996,26.855,82.031,45.410
1584600603.806,-9.277,20.508,26.367,-19.043,52.246
1584600603.810,-6.348,20.508,31.250,-38.086,5.859
1584600603.813,31.738,25.391,31.250,56.152,-24.414
1584600603.817,32.715,27.832,28.320,94.238,48.340
1584600603.821,-0.977,20.508,27.832,5.371,37.109
1584600603.825,-7.324,19.043,26.855,-54.199,-17.578
1584600603.829,25.391,24.902,29.785,21.484,1.465
1584600603.833,44.922,28.320,33.691,100.098,36.621
1584600603.837,18.555,20.508,31.250,40.039,-10.254
1584600603.841,-4.883,14.648,25.879,-41.992,-40.527
1584600603.845,23.926,23.926,29.297,4.883,56.641
1584600603.849,47.852,27.832,31.738,99.609,83.008
1584600603.852,27.344,23.926,29.785,68.848,60.059
1584600603.856,-5.371,19.531,33.203,-27.832,33.203
1584600603.860,4.883,21.973,33.691,-24.414,26.367
1584600603.864,33.203,29.297,28.809,72.266,38.086
1584600603.868,24.902,25.879,26.855,81.543,19.531
1584600603.872,-4.883,22.949,26.855,-14.160,51.758
1584600603.876,-2.930,26.367,28.320,-42.969,52.246
1584600603.880,33.691,26.367,32.715,49.316,-19.531
1584600603.884,43.945,22.461,34.668,99.609,11.230
1584600603.888,12.695,17.578,34.668,20.508,57.617
1584600603.892,15.137,16.113,37.109,-26.367,60.547
1584600603.895,61.035,22.949,36.621,50.781,39.551
1584600603.899,57.617,33.203,32.227,103.027,44.434
1584600603.903,5.371,33.691,29.785,24.902,55.176
1584600603.907,-19.531,30.762,25.391,-59.570,48.340
1584600603.911,7.812,31.250,20.020,-23.926,-8.789
1584600603.915,39.551,36.621,22.461,73.242,-40.039
1584600603.919,29.297,36.133,22.949,56.152,14.648
1584600603.923,-3.906,30.273,18.555,-40.039,44.434
1584600603.927,11.719,35.156,21.484,-36.621,70.312
1584600603.931,48.340,40.039,25.879,65.430,45.898
1584600603.935,49.316,39.062,26.367,90.332,9.766
1584600603.938,11.719,32.715,26.367,-4.395,45.410
1584600603.942,7.812,31.250,30.762,-46.875,5.859
1584600603.946,45.898,42.480,33.691,43.457,-31.250
1584600603.950,52.246,43.945,32.227,103.516,17.090
1584600603.954,22.949,34.668,27.832,28.809,33.691
1584600603.958,6.836,29.297,26.367,-45.898,2.441
1584600603.962,33.691,30.762,25.879,13.184,-6.348
1584600603.966,50.293,34.180,28.809,104.980,22.949
1584600603.970,28.320,32.715,31.250,57.617,10.254
1584600603.974,1.465,27.344,31.250,-41.504,7.812
1584600603.977,21.484,33.203,36.133,-15.625,76.660
1584600603.981,54.199,35.645,38.086,92.285,92.285
1584600603.985,39.062,29.785,31.738,79.590,-26.367
1584600603.989,6.836,32.227,26.367,-18.555,-35.645
1584600603.993,15.137,35.645,27.344,-28.809,11.230
1584600603.997,52.734,39.551,27.832,69.336,16.602
1584600604.001,50.781,35.645,25.879,106.445,64.453
1584600604.005,9.766,23.438,26.367,11.719,52.734
1584600604.009,10.254,28.320,27.832,-44.922,6.348
1584600604.013,48.340,36.133,36.133,39.551,1.465
1584600604.017,59.570,34.180,36.621,101.562,57.617
1584600604.020,26.855,31.250,28.809,24.902,67.383
1584600604.024,7.324,30.273,25.391,-44.922,71.777
1584600604.028,35.156,32.227,25.391,12.207,14.648
1584600604.032,56.641,34.180,29.297,101.074,-10.742
1584600604.036,34.668,34.180,32.715,61.035,32.227
1584600604.040,-1.953,32.715,31.250,-34.668,65.430
1584600604.044,13.184,31.250,26.367,-22.461,5.371
1584600604.048,49.805,28.809,27.832,84.473,-10.254
1584600604.052,39.062,26.855,30.762,86.914,-25.879
1584600604.056,-2.441,27.832,28.809,-20.996,-11.230
1584600604.060,3.906,28.809,27.832,-44.434,-0.977
1584600604.063,43.457,29.785,30.762,52.734,-10.742
1584600604.067,44.434,32.715,31.738,97.656,7.812
1584600604.071,6.836,29.297,26.367,12.695,7.812
1584600604.075,-4.395,26.367,24.902,-46.387,42.480
1584600604.079,34.180,34.668,29.297,30.762,14.648
1584600604.083,52.734,38.086,32.227,105.469,15.625
1584600604.087,28.320,30.273,30.273,39.062,78.613
1584600604.091,3.906,25.879,29.297,-47.852,59.082
1584600604.095,30.273,30.273,28.320,-7.812,14.160
1584600604.099,54.199,34.668,27.344,88.379,10.742
1584600604.102,30.762,31.250,26.855,62.988,31.738
1584600604.106,3.418,26.855,29.785,-34.180,60.547
1584600604.110,20.508,34.180,30.273,-28.320,56.152
1584600604.114,50.781,40.039,31.738,76.172,21.484
1584600604.118,40.527,37.598,34.180,94.238,54.199
1584600604.122,7.324,34.180,32.227,-4.395,63.477
1584600604.126,4.883,31.738,34.180,-38.086,-27.344
1584600604.130,33.203,33.691,30.273,57.617,14.648
1584600604.134,40.527,32.227,22.949,106.445,28.320
1584600604.138,16.602,31.250,22.461,23.926,3.418
1584600604.142,10.742,34.668,21.484,-39.062,0.488
1584600604.145,32.715,37.109,25.391,28.809,18.555
1584600604.149,34.180,34.180,31.250,102.051,43.457
1584600604.153,12.695,32.715,32.715,39.062,20.020
1584600604.157,-11.230,29.785,31.738,-44.922,20.020
1584600604.161,9.277,25.879,30.762,-5.859,47.363
1584600604.165,42.969,32.227,33.691,91.797,58.594
1584600604.169,24.414,32.227,34.668,73.730,42.969
1584600604.173,-12.695,25.879,29.785,-28.320,32.715
1584600604.177,0.000,28.809,26.855,-33.691,17.578
1584600604.181,41.016,35.156,29.297,73.242,20.020
1584600604.185,36.133,31.250,30.762,100.098,49.316
1584600604.188,-1.465,26.367,28.809,2.930,38.574
1584600604.192,-1.953,26.367,26.367,-41.016,20.996
1584600604.196,31.250,30.273,28.320,41.992,-26.855
1584600604.200,35.156,34.668,30.273,97.656,-7.324
1584600604.204,9.277,30.762,27.832,24.414,27.832
1584600604.208,-5.371,26.367,22.949,-44.922,24.414
1584600604.212,20.508,28.809,24.414,11.230,31.738
1584600604.216,42.480,29.297,27.832,92.773,20.508
1584600604.220,20.020,26.855,23.926,48.340,13.672
1584600604.224,-7.324,25.391,22.461,-42.969,20.508
1584600604.227,17.090,29.785,25.391,-19.043,69.824
1584600604.231,49.805,29.297,27.832,86.914,66.895
1584600604.235,30.762,24.414,28.809,83.496,62.012
1584600604.239,-5.371,22.949,31.250,-16.602,63.477
1584600604.243,3.418,23.926,29.297,-32.227,76.660
1584600604.247,41.504,27.832,27.344,69.336,57.129
1584600604.251,44.434,26.367,28.320,106.445,23.438
1584600604.255,9.277,20.508,31.250,10.254,-8.301
1584600604.259,4.395,21.973,29.785,-37.598,-45.410
1584600604.263,42.480,30.273,28.320,44.922,9.277
1584600604.267,50.293,24.414,31.250,113.281,25.879
1584600604.270,22.949,20.020,31.250,50.781,56.152
1584600604.274,4.883,25.391,31.738,-37.109,68.848
1584600604.278,25.879,25.879,32.715,4.883,44.434
1584600604.282,52.246,26.367,27.832,101.562,7.812
1584600604.286,34.180,23.438,26.855,60.547,-5.371
1584600604.290,2.930,22.949,27.832,-39.551,54.688
1584600604.294,17.578,28.809,32.715,-18.066,63.477
1584600604.298,52.246,31.250,37.109,89.844,9.766
1584600604.302,44.922,33.691,30.762,87.402,17.090
1584600604.306,4.883,29.297,26.367,-15.625,6.836
1584600604.310,5.371,28.320,27.832,-35.156,27.832
1584600604.313,45.410,31.738,27.344,60.547,28.320
1584600604.317,54.688,29.297,27.344,103.516,-4.395
1584600604.321,16.602,25.879,26.367,14.160,49.805
1584600604.325,3.906,22.949,25.391,-49.316,23.926
1584600604.329,41.016,26.855,28.320,25.879,-0.977
1584600604.333,52.246,27.832,28.320,99.609,14.160
1584600604.337,23.926,27.344,27.344,37.109,34.668
1584600604.341,-0.977,28.320,28.809,-43.945,49.316
1584600604.345,20.996,29.785,24.902,-2.930,19.531
1584600604.349,46.875,28.809,23.438,92.773,70.801
1584600604.352,29.297,22.949,22.949,65.918,28.809
1584600604.356,4.883,20.020,21.484,-28.809,-30.273
1584600604.360,17.090,22.461,24.902,-26.855,58.105
1584600604.364,51.758,27.832,28.809,77.637,69.824
1584600604.368,49.316,26.855,27.832,96.680,73.242
1584600604.372,11.230,24.414,24.414,-1.465,69.824
1584600604.376,9.766,28.809,23.438,-39.062,40.527
1584600604.380,45.898,31.250,26.367,50.293,48.828
1584600604.384,49.805,31.250,28.809,104.492,63.477
1584600604.388,15.137,31.250,27.344,21.973,23.926
1584600604.392,2.441,25.391,26.367,-45.898,-13.184
1584600604.395,28.320,23.926,27.344,16.113,1.465
1584600604.399,36.621,28.809,27.832,99.609,-10.254
1584600604.403,13.672,24.414,28.809,54.688,13.184
1584600604.407,-12.207,22.461,28.809,-39.551,64.453
1584600604.411,11.719,25.391,32.227,-12.695,-0.488
1584600604.415,43.457,24.902,34.668,90.820,-33.691
1584600604.419,20.020,23.438,31.250,76.172,17.578
1584600604.423,-15.137,24.902,29.785,-22.461,52.734
1584600604.427,-0.977,27.832,33.203,-32.715,17.578
1584600604.431,37.109,29.297,38.086,65.918,-28.809
1584600604.435,33.203,27.832,35.156,89.844,-7.324
1584600604.438,1.953,22.949,31.250,-6.836,-7.812
1584600604.442,3.906,23.926,29.785,-48.340,-8.789
1584600604.446,36.133,27.832,30.273,44.434,22.461
1584600604.450,44.434,29.297,32.715,107.422,-18.555
1584600604.454,15.625,28.320,31.738,31.250,-13.672
1584600604.458,-4.883,25.879,26.855,-42.969,-1.953
1584600604.462,28.809,29.297,25.391,14.160,-52.734
1584600604.466,59.570,30.762,27.832,103.516,5.371
1584600604.470,32.227,25.879,27.832,62.012,54.199
1584600604.474,-1.953,26.855,24.902,-32.227,22.461
1584600604.477,19.531,27.344,27.832,-9.766,60.547
1584600604.481,54.688,24.902,33.691,89.844,41.504
1584600604.485,44.434,25.391,32.227,81.543,22.949
1584600604.489,5.859,24.902,27.832,-15.137,42.480
1584600604.493,1.953,22.949,24.902,-29.297,-10.742
1584600604.497,37.598,26.367,28.809,69.336,11.719
1584600604.501,38.574,28.809,29.297,102.051,66.895
1584600604.505,3.906,28.320,26.855,12.695,67.383
1584600604.509,-1.465,29.785,29.785,-38.086,35.645
1584600604.513,31.250,29.785,32.227,40.527,43.457
1584600604.517,49.316,31.250,32.227,105.957,14.648
1584600604.520,23.438,30.273,31.738,41.992,-15.625
1584600604.524,5.371,24.902,30.762,-28.809,31.738
1584600604.528,33.691,30.273,31.738,7.812,49.316
1584600604.532,51.758,35.645,33.203,91.797,62.988
1584600604.536,24.902,26.367,32.227,67.383,67.383
1584600604.540,-11.230,20.020,31.250,-34.668,37.598
1584600604.544,7.812,26.367,32.715,-31.738,25.879
1584600604.548,43.945,29.297,36.133,73.242,14.160
1584600604.552,30.762,23.438,33.691,82.031,36.621
1584600604.556,-6.348,18.555,28.320,-18.066,69.336
1584600604.560,-4.395,20.020,32.227,-39.551,19.043
1584600604.563,33.691,25.879,37.109,55.664,-36.133
1584600604.567,38.086,28.320,35.156,100.586,-33.691
1584600604.571,0.488,26.367,37.109,14.160,6.348
1584600604.575,-10.254,22.949,34.668,-50.293,19.531
1584600604.579,24.414,30.762,31.738,24.902,36.621
1584600604.583,44.434,34.180,32.227,103.516,82.031
1584600604.587,24.414,26.855,31.738,42.480,56.641
1584600604.591,-1.465,24.414,33.691,-38.574,43.945
1584600604.595,22.461,27.832,31.250,0.000,45.410
1584600604.599,51.270,29.785,28.320,96.191,8.301
1584600604.602,27.832,25.879,30.762,76.660,43.457
1584600604.606,-10.742,26.367,28.320,-23.438,69.824
1584600604.610,0.000,28.320,25.879,-26.367,-3.906
1584600604.614,40.527,28.320,25.879,72.754,-21.973
1584600604.618,43.945,28.809,25.879,91.797,20.996
1584600604.622,8.789,30.273,29.297,-1.465,16.113
1584600604.626,7.812,32.227,33.203,-28.809,-1.953
1584600604.630,46.387,35.156,31.738,58.594,26.855
1584600604.634,55.176,32.227,30.273,107.910,-2.441
1584600604.638,23.926,23.438,28.809,27.832,-69.336
1584600604.642,0.977,23.926,26.855,-38.574,-54.199
1584600604.645,32.715,25.391,29.785,27.832,-12.695
1584600604.649,57.129,25.879,31.738,109.863,7.812
1584600604.653,27.344,27.832,29.297,61.035,62.012
1584600604.657,-1.465,24.902,27.832,-21.973,68.848
1584600604.661,21.484,24.902,30.273,4.883,-10.742
1584600604.665,51.270,32.715,33.203,89.844,26.855
1584600604.669,31.738,31.738,29.297,76.172,44.922
1584600604.673,-4.395,25.879,20.996,-25.391,8.789
1584600604.677,4.395,29.785,22.461,-39.062,39.062
1584600604.681,38.086,33.691,25.879,62.012,42.480
1584600604.685,32.715,25.879,24.414,87.402,52.246
1584600604.688,-0.977,22.461,23.438,-8.789,52.734
1584600604.692,-3.418,25.879,26.367,-49.805,22.461
1584600604.696,33.691,30.273,29.297,39.551,45.898
1584600604.700,48.340,33.691,27.832,104.492,77.637
1584600604.704,13.672,29.297,24.902,27.344,20.508
1584600604.708,-9.277,27.344,22.461,-48.828,-2.930
1584600604.712,23.926,29.785,24.414,8.301,37.109
1584600604.716,44.922,27.832,24.414,99.609,51.270
1584600604.720,17.578,26.367,19.043,59.082,19.531
1584600604.724,-8.301,23.926,18.066,-40.039,22.461
1584600604.727,13.184,21.973,22.949,-20.508,9.766
1584600604.731,40.039,25.391,26.855,88.379,-24.414
1584600604.735,23.926,26.367,26.855,80.566,15.625
1584600604.739,-4.883,22.461,21.973,-24.902,22.461
1584600604.743,3.906,22.949,24.414,-38.574,47.363
1584600604.747,34.180,27.832,26.367,59.082,70.312
1584600604.751,34.668,29.297,27.344,100.586,71.777
1584600604.755,5.371,27.344,29.297,15.137,59.570
1584600604.759,0.000,27.344,27.344,-46.387,41.504
1584600604.763,32.227,28.320,26.367,32.227,45.410
1584600604.767,45.898,28.320,26.855,103.027,-1.953
1584600604.770,9.277,24.902,28.320,30.273,-15.625
1584600604.774,-11.230,22.949,25.879,-43.945,11.719
1584600604.778,20.020,23.926,23.926,-0.977,-0.488
1584600604.782,40.039,24.414,30.273,91.309,1.953
1584600604.786,20.996,21.484,29.785,68.359,16.602
1584600604.790,-9.766,20.020,22.461,-30.762,13.672
1584600604.794,6.348,25.391,23.438,-23.438,12.207
1584600604.798,40.039,31.250,28.320,83.496,22.461
1584600604.802,38.574,31.738,26.855,90.820,30.273
1584600604.806,8.301,27.832,27.344,-11.230,20.020
1584600604.810,5.371,27.344,24.902,-42.480,12.695
1584600604.813,44.922,31.250,23.438,50.781,22.949
1584600604.817,44.922,31.738,24.902,99.121,21.484
1584600604.821,2.930,27.832,22.461,15.137,65.430
1584600604.825,-5.371,30.762,21.484,-46.875,46.387
1584600604.829,33.691,33.691,28.320,30.273,1.465
1584600604.833,50.781,32.227,29.785,112.305,44.434
1584600604.837,16.602,26.855,26.367,51.758,13.184
1584600604.841,-6.348,24.414,26.367,-38.574,-0.488
1584600604.845,19.043,28.809,26.367,-3.418,21.484
1584600604.849,46.387,32.227,27.344,95.215,18.555
1584600604.852,30.762,28.809,29.297,79.102,43.457
1584600604.856,3.906,26.367,26.367,-26.367,39.062
1584600604.860,15.137,32.715,21.973,-38.574,12.695
1584600604.864,49.316,36.621,23.926,68.848,45.410
1584600604.868,47.852,30.762,25.391,94.238,78.125
1584600604.872,5.371,26.367,25.879,-2.441,62.012
1584600604.876,4.883,29.297,27.344,-38.086,51.758
1584600604.880,42.969,34.668,31.250,52.246,20.020
1584600604.884,48.828,35.156,33.203,108.887,-16.113
1584600604.888,17.578,29.297,30.762,27.344,28.809
1584600604.892,5.371,28.809,29.297,-53.711,35.156
1584600604.895,36.621,35.156,30.273,25.879,9.277
1584600604.899,56.152,32.715,31.250,113.770,6.836
1584600604.903,31.738,26.855,29.785,40.527,-18.555
1584600604.907,1.953,29.297,30.273,-38.574,47.852
1584600604.911,18.066,32.227,32.715,-3.418,0.000
1584600604.915,45.898,30.762,30.273,96.191,10.742
1584600604.919,32.227,26.367,26.855,82.031,29.297
1584600604.923,1.953,24.414,30.273,-23.926,14.648
1584600604.927,9.766,27.832,31.250,-34.180,7.324
1584600604.931,48.828,32.715,31.250,66.406,7.324
1584600604.935,44.434,31.738,30.273,99.121,-18.066
1584600604.938,2.930,26.367,28.809,5.371,20.020
1584600604.942,-2.441,25.391,34.180,-39.551,56.641
1584600604.946,34.180,27.344,38.574,46.875,35.645
1584600604.950,46.387,28.809,40.039,107.422,70.312
1584600604.954,18.066,30.762,41.016,38.574,64.453
1584600604.958,0.488,27.832,38.086,-39.062,31.250
1584600604.962,26.855,27.344,37.109,9.766,51.270
1584600604.966,51.270,27.832,36.621,102.051,41.504
1584600604.970,25.391,28.320,33.691,61.523,20.020
1584600604.974,-3.418,29.785,33.691,-30.762,29.785
1584600604.977,23.438,27.344,37.109,-5.859,58.594
1584600604.981,63.477,27.832,41.016,107.422,55.664
1584600604.985,46.387,29.785,40.039,96.191,43.457
1584600604.989,1.465,31.250,31.250,-28.320,22.949
1584600604.993,6.348,36.133,28.809,-57.617,-8.301
1584600604.997,48.828,38.574,36.133,47.852,30.273
1584600605.001,51.758,32.715,34.668,100.098,75.195
1584600605.005,8.301,26.367,28.320,5.859,105.469
1584600605.009,-4.883,24.414,28.320,-51.270,101.562
1584600605.013,27.344,28.809,30.762,30.762,22.461
1584600605.017,46.875,34.180,30.273,104.492,22.949
1584600605.020,18.555,29.785,27.832,38.086,54.199
1584600605.024,-2.441,22.461,29.785,-42.969,75.684
1584600605.028,25.391,24.902,34.668,8.301,66.406
1584600605.032,48.340,29.785,35.645,107.422,10.742
1584600605.036,31.738,27.832,29.297,71.777,45.898
1584600605.040,0.000,24.902,23.926,-31.738,94.238
1584600605.044,18.066,29.297,27.832,-16.602,34.180
1584600605.048,59.082,33.691,33.691,89.355,-4.395
1584600605.052,44.922,29.297,31.738,92.285,32.715
1584600605.056,7.324,29.297,27.344,-7.324,72.266
1584600605.060,11.230,34.180,28.809,-35.156,22.949
1584600605.063,44.922,32.227,32.227,57.617,22.461
1584600605.067,48.340,31.250,32.715,106.445,45.410
1584600605.071,13.184,29.297,28.809,20.508,35.156
1584600605.075,3.418,28.809,26.855,-49.316,13.672
1584600605.079,37.598,35.645,29.297,18.066,-25.879
1584600605.083,56.641,36.133,29.297,103.027,32.227
1584600605.087,29.785,28.809,27.344,50.781,34.668
1584600605.091,0.000,27.344,29.297,-37.598,-3.418
1584600605.095,25.391,30.762,30.762,-1.953,26.367
1584600605.099,57.129,37.109,33.203,95.703,27.344
1584600605.102,37.109,39.062,33.691,73.730,11.230
1584600605.106,-1.465,29.785,28.320,-22.461,-8.301
1584600605.110,11.230,27.832,26.855,-27.344,1.953
1584600605.114,41.992,27.832,28.809,69.824,52.246
1584600605.118,34.180,30.273,29.785,92.285,29.785
1584600605.122,5.859,34.180,29.297,0.000,40.527
1584600605.126,6.348,34.180,28.809,-40.039,52.246
1584600605.130,39.062,34.668,33.691,49.316,61.035
1584600605.134,46.387,31.738,37.109,110.840,42.969
1584600605.138,16.602,26.855,31.738,33.691,38.086
1584600605.142,6.348,22.949,30.273,-41.016,6.348
1584600605.145,40.527,28.809,33.203,13.184,-20.020
1584600605.149,59.082,34.180,29.785,101.074,42.969
1584600605.153,31.738,32.227,25.391,55.664,36.133
1584600605.157,2.930,27.832,28.320,-30.762,12.207
1584600605.161,20.508,26.367,35.156,-7.324,-2.441
1584600605.165,44.434,29.785,34.668,87.891,1.953
1584600605.169,36.621,28.320,31.738,87.402,25.391
1584600605.173,8.301,28.809,32.227,-6.836,47.363
1584600605.177,13.184,34.668,31.738,-23.438,50.293
1584600605.181,51.758,36.621,33.691,79.590,22.461
1584600605.185,48.828,31.250,33.203,111.816,4.883
1584600605.188,13.672,28.320,26.367,10.254,25.391
1584600605.192,12.207,31.250,29.297,-38.086,7.812
1584600605.196,46.875,32.715,31.738,51.758,0.000
1584600605.200,57.129,30.273,26.855,117.676,45.410
1584600605.204,21.973,28.809,27.344,44.434,58.105
1584600605.208,3.906,30.762,28.809,-41.016,0.977
1584600605.212,34.180,32.715,29.297,8.789,10.254
1584600605.216,52.246,31.738,30.762,100.586,56.641
1584600605.220,20.996,28.320,31.738,62.012,36.133
1584600605.224,-9.766,29.297,29.785,-34.180,2.441
1584600605.227,15.625,32.227,30.762,-16.113,3.906
1584600605.231,45.898,35.645,31.738,80.078,-5.371
1584600605.235,31.250,34.180,28.320,77.637,3.906
1584600605.239,-0.977,27.344,28.320,-14.648,-8.789
1584600605.243,0.488,25.391,29.297,-41.016,-21.973
1584600605.247,38.574,28.320,31.250,53.711,21.484
1584600605.251,45.898,31.250,35.645,99.609,11.719
1584600605.255,14.648,31.738,32.227,15.625,0.977
1584600605.259,8.789,28.320,27.832,-43.457,-32.715
1584600605.263,41.504,30.762,31.738,29.297,-32.715
1584600605.267,52.246,37.109,33.203,106.934,70.312
1584600605.270,20.020,32.227,28.809,42.480,36.621
1584600605.274,4.395,28.809,25.879,-37.109,11.719
1584600605.278,44.434,33.691,29.297,12.695,29.785
1584600605.282,62.012,37.109,32.715,98.633,31.250
1584600605.286,28.809,29.297,32.715,61.035,63.965
1584600605.290,-1.465,23.438,31.250,-37.598,52.734
1584600605.294,16.113,24.902,31.738,-28.320,4.883
1584600605.298,45.410,26.855,37.598,80.078,-29.297
1584600605.302,29.297,27.344,35.156,92.285,8.789
1584600605.306,-4.395,26.367,28.320,-9.766,54.688
1584600605.310,-1.465,29.785,26.367,-43.945,55.176
1584600605.313,32.227,30.762,25.391,45.898,29.297
1584600605.317,41.504,28.809,24.414,100.098,-6.836
1584600605.321,14.160,26.367,25.879,20.996,-1.953
1584600605.325,4.883,24.414,27.344,-48.340,-21.973
1584600605.329,34.180,30.762,27.832,19.531,34.180
1584600605.333,45.898,31.250,31.250,106.445,43.457
1584600605.337,19.043,29.785,35.156,54.688,2.441
1584600605.341,-6.348,28.320,30.762,-38.574,22.949
1584600605.345,12.695,27.832,28.809,-4.395,-20.508
1584600605.349,41.016,28.320,31.738,95.215,-47.852
1584600605.352,25.879,27.344,29.785,73.242,1.953
1584600605.356,-4.883,24.414,26.855,-26.855,43.457
1584600605.360,11.719,25.879,31.738,-26.855,0.000
1584600605.364,49.316,28.809,36.133,78.125,7.324
1584600605.368,41.016,26.367,33.691,95.215,52.734
1584600605.372,3.906,28.809,31.738,-3.418,42.969
1584600605.376,-0.488,29.297,32.715,-41.504,49.316
1584600605.380,38.574,29.785,33.691,49.805,55.176
1584600605.384,49.316,31.250,31.738,104.004,-3.906
1584600605.388,15.625,28.320,29.297,25.879,-12.207
1584600605.392,-1.465,27.344,29.785,-44.434,35.645
1584600605.395,26.367,33.691,27.344,7.324,71.289
1584600605.399,49.805,37.598,28.809,94.238,49.805
1584600605.403,28.809,28.320,29.785,50.781,19.531
1584600605.407,-7.324,21.973,28.809,-37.109,27.344
1584600605.411,7.324,25.879,30.273,-15.625,19.531
1584600605.415,40.527,32.715,34.668,79.590,49.316
1584600605.419,26.855,32.227,28.320,78.125,76.172
1584600605.423,-6.348,26.855,20.996,-20.020,-37.598
1584600605.427,1.953,28.320,23.926,-38.086,-64.941
1584600605.431,44.922,33.691,26.855,60.059,0.977
1584600605.435,40.527,34.180,26.367,96.680,19.043
1584600605.438,-5.371,24.902,26.855,2.930,-5.859
1584600605.442,-2.441,22.949,29.297,-49.805,11.719
1584600605.446,37.109,26.855,33.203,30.762,22.461
1584600605.450,45.898,28.320,32.715,97.656,35.645
1584600605.454,20.508,27.832,28.320,31.738,65.430
1584600605.458,-3.906,23.438,31.250,-45.410,38.574
1584600605.462,16.113,25.391,32.227,0.000,54.688
1584600605.466,43.945,29.297,27.832,91.797,73.242
1584600605.470,21.973,25.879,24.902,58.105,64.453
1584600605.474,-10.742,22.461,26.855,-43.945,59.570
1584600605.477,6.348,24.902,28.320,-34.180,38.086
1584600605.481,39.062,27.832,30.762,70.312,7.324
1584600605.485,28.320,23.926,32.227,72.266,-0.488
1584600605.489,-2.441,17.578,27.832,-25.391,19.043
1584600605.493,-0.977,19.043,26.367,-47.363,36.621
1584600605.497,34.180,26.855,29.785,49.316,48.828
1584600605.501,43.457,25.879,29.785,97.168,17.578
1584600605.505,11.230,21.973,26.367,11.230,8.301
1584600605.509,-2.930,23.926,29.297,-48.828,51.270
1584600605.513,31.250,30.762,29.785,26.367,76.660
1584600605.517,44.922,29.297,28.320,98.633,15.625
1584600605.520,16.602,24.414,30.762,36.621,-17.578
1584600605.524,-5.859,26.367,31.250,-41.016,37.598
1584600605.528,18.555,31.250,30.762,-0.488,54.199
1584600605.532,44.922,32.715,32.227,94.727,54.688
1584600605.536,26.855,25.879,30.273,69.336,60.547
1584600605.540,2.441,20.020,27.832,-26.855,61.035
1584600605.544,17.578,19.043,27.344,-27.832,52.734
1584600605.548,49.316,24.414,26.855,65.918,41.504
1584600605.552,39.551,28.809,27.832,80.566,46.387
1584600605.556,2.441,23.926,31.738,-13.672,27.832
1584600605.560,-1.465,21.973,29.297,-49.316,14.648
1584600605.563,34.180,25.879,27.344,36.621,29.297
1584600605.567,43.457,32.715,29.297,94.238,1.953
1584600605.571,9.277,27.344,29.785,21.973,3.906
1584600605.575,-1.465,16.113,27.344,-41.016,7.324
1584600605.579,29.297,19.531,27.344,26.367,18.066
1584600605.583,44.922,22.949,29.297,108.398,64.453
1584600605.587,20.508,21.484,26.855,51.758,76.172
1584600605.591,-4.395,22.461,23.926,-27.832,58.105
1584600605.595,18.555,27.344,21.973,-4.395,12.695
1584600605.599,48.828,29.297,23.926,79.590,-0.488
1584600605.602,30.273,25.879,27.344,69.824,9.766
1584600605.606,-7.812,22.461,28.320,-33.203,47.852
1584600605.610,2.441,24.414,28.320,-47.363,48.828
1584600605.614,46.875,32.715,28.809,64.453,-9.277
1584600605.618,40.527,30.762,22.949,93.750,7.324
1584600605.622,1.953,19.043,20.996,-4.883,61.523
1584600605.626,0.488,17.090,23.926,-46.387,30.273
1584600605.630,33.203,21.484,24.902,40.527,25.391
1584600605.634,43.457,25.391,24.902,101.074,18.555
1584600605.638,9.766,22.461,25.879,25.391,42.969
1584600605.642,-9.277,18.066,25.879,-51.270,6.836
1584600605.645,23.926,25.391,28.320,2.441,-4.883
1584600605.649,49.805,31.250,32.715,93.262,46.387
1584600605.653,21.973,26.855,32.227,45.898,9.277
1584600605.657,-9.277,24.902,30.273,-47.363,5.371
1584600605.661,11.230,25.391,28.320,-18.066,56.152
1584600605.665,43.945,31.738,29.297,84.473,33.203
1584600605.669,33.203,33.691,31.250,82.520,29.297
1584600605.673,0.488,24.414,30.273,-13.184,26.367
1584600605.677,3.418,25.391,30.273,-29.297,0.977
1584600605.681,35.156,27.344,29.297,66.406,18.066
1584600605.685,38.086,25.391,30.762,102.051,61.523
1584600605.688,7.812,20.508,31.738,8.301,87.891
1584600605.692,17.578,20.996,33.691,-21.973,71.289
1584600605.696,56.152,30.273,30.273,64.453,36.621
1584600605.700,45.410,36.621,24.414,95.703,30.273
1584600605.704,2.441,34.180,23.926,10.254,43.457
1584600605.708,-5.371,32.715,18.555,-58.105,1.953
1584600605.712,34.668,37.109,19.531,-2.930,-29.297
1584600605.716,52.246,39.062,23.926,87.402,-41.992
1584600605.720,37.109,41.016,20.020,52.246,-12.695
1584600605.724,9.766,39.551,21.973,-43.945,72.266
1584600605.727,14.648,37.598,26.367,-35.645,107.910
1584600605.731,47.852,40.039,22.949,64.941,9.766
1584600605.735,47.363,39.062,22.949,80.078,-15.625
1584600605.739,18.555,33.203,23.926,-13.672,-9.277
1584600605.743,12.207,33.691,22.461,-49.805,6.348
1584600605.747,38.086,37.598,22.461,39.551,17.578
1584600605.751,50.293,36.621,25.879,90.332,-0.977
1584600605.755,18.555,36.133,21.484,6.836,26.367
1584600605.759,0.000,39.551,17.578,-51.758,13.672
1584600605.763,37.109,38.574,24.414,25.879,-17.578
1584600605.767,55.664,35.645,23.438,101.562,36.621
1584600605.770,21.973,33.203,17.578,44.922,23.438
1584600605.774,-3.906,27.832,20.020,-35.645,-6.836
1584600605.778,18.555,31.250,23.926,-3.906,37.109
1584600605.782,45.410,32.227,23.926,90.332,28.809
1584600605.786,26.367,25.391,22.461,69.824,25.391
1584600605.790,-1.953,24.414,21.973,-28.809,33.691
1584600605.794,13.184,28.809,24.902,-25.391,-0.977
1584600605.798,46.387,35.156,28.809,81.055,-23.926
1584600605.802,37.598,33.203,27.344,89.355,-16.602
1584600605.806,-3.418,30.273,23.438,-11.230,14.160
1584600605.810,0.488,35.156,20.996,-43.457,-2.930
1584600605.813,36.133,31.250,22.461,43.457,3.418
1584600605.817,41.016,25.391,25.879,101.074,23.438
1584600605.821,12.207,23.926,24.902,22.949,11.230
1584600605.825,-2.441,22.949,26.367,-43.945,1.465
1584600605.829,25.879,24.902,29.297,18.555,18.066
1584600605.833,44.922,25.391,30.273,101.562,33.691
1584600605.837,21.973,27.344,32.227,52.734,57.617
1584600605.841,-2.441,27.344,32.715,-33.203,76.660
1584600605.845,17.090,28.809,27.344,-2.441,47.363
1584600605.849,47.852,29.785,25.391,86.426,-10.742
1584600605.852,34.668,23.926,26.855,73.242,23.926
1584600605.856,7.324,20.020,21.973,-19.531,61.523
1584600605.860,15.137,23.926,18.066,-27.344,37.598
1584600605.864,45.898,28.320,22.461,72.266,17.578
1584600605.868,45.410,25.391,26.367,98.633,36.621
1584600605.872,8.301,24.414,23.438,6.836,56.641
1584600605.876,2.441,24.902,24.414,-41.504,58.105
1584600605.880,37.109,27.832,31.738,34.668,48.828
1584600605.884,39.551,26.367,30.762,94.727,1.465
1584600605.888,7.812,25.879,23.438,27.344,5.371
1584600605.892,-3.906,23.926,23.438,-49.316,-5.371
1584600605.895,18.066,30.273,28.320,4.883,0.488
1584600605.899,41.016,34.668,33.203,99.121,-4.395
1584600605.903,20.020,27.832,31.250,55.664,-14.160
1584600605.907,-8.789,25.879,25.391,-38.574,-23.438
1584600605.911,13.184,33.203,28.320,-19.043,-5.859
1584600605.915,47.363,36.133,33.691,83.008,23.926
1584600605.919,34.180,29.297,30.762,76.660,6.836
1584600605.923,0.977,23.926,29.785,-21.973,4.883
1584600605.927,10.254,25.879,29.785,-37.598,29.785
1584600605.931,46.875,27.832,26.367,59.570,36.133
1584600605.935,41.016,25.879,26.855,99.609,44.434
1584600605.938,5.371,23.926,25.879,6.836,43.457
1584600605.942,3.418,28.809,23.926,-56.641,38.574
1584600605.946,46.875,35.645,21.484,34.180,34.668
1584600605.950,71.289,34.668,22.949,123.535,17.090
1584600605.954,20.996,24.902,26.855,41.016,4.395
1584600605.958,-22.949,21.973,27.344,-63.965,27.344
1584600605.962,12.207,27.344,30.762,-8.789,41.016
1584600605.966,42.480,28.320,33.691,92.773,5.859
1584600605.970,22.949,23.438,32.715,61.035,19.531
1584600605.974,-5.371,19.531,32.227,-29.297,63.965
1584600605.977,7.324,24.414,35.156,-25.879,32.715
1584600605.981,41.016,23.926,37.598,71.289,-3.906
1584600605.985,27.832,24.414,37.109,83.008,9.277
1584600605.989,-11.719,24.414,35.645,-7.812,-22.461
1584600605.993,-8.789,19.531,34.180,-34.668,-29.297
1584600605.997,35.645,26.855,33.203,58.594,19.043
1584600606.001,44.922,32.715,30.762,103.516,18.066
1584600606.005,8.789,27.832,27.832,19.043,-11.719
1584600606.009,-6.836,24.902,27.832,-40.527,67.871
1584600606.013,18.555,24.902,30.273,29.297,83.984
1584600606.017,32.227,25.391,30.273,111.816,9.766
1584600606.020,11.230,27.344,25.391,52.734,11.719
1584600606.024,-11.719,27.832,27.832,-37.598,51.758
1584600606.028,8.301,25.391,32.227,-3.906,51.270
1584600606.032,32.715,29.297,31.738,90.332,0.488
1584600606.036,23.438,31.738,32.227,79.102,-7.324
1584600606.040,-4.395,27.832,34.180,-15.625,4.883
1584600606.044,4.883,28.320,34.180,-21.973,55.176
1584600606.048,43.457,35.645,31.738,77.637,98.633
1584600606.052,39.062,33.691,32.227,93.750,83.008
1584600606.056,3.418,28.320,32.227,-9.277,58.594
1584600606.060,2.441,31.738,30.273,-48.828,5.859
1584600606.063,35.156,35.645,30.762,43.457,-15.137
1584600606.067,43.945,34.668,31.738,104.980,-18.555
1584600606.071,13.184,27.344,31.738,25.879,-2.930
1584600606.075,0.000,26.367,27.832,-51.270,16.602
1584600606.079,29.297,32.715,30.762,13.184,-7.812
1584600606.083,48.340,30.762,32.227,103.516,17.578
1584600606.087,27.344,25.391,26.855,55.176,51.758
1584600606.091,0.000,25.391,24.902,-41.992,79.102
1584600606.095,18.066,27.344,26.855,-15.625,74.707
1584600606.099,52.734,32.227,28.809,92.773,37.109
1584600606.102,36.621,30.273,29.785,82.031,-3.906
1584600606.106,-1.953,23.438,33.203,-18.066,45.898
1584600606.110,6.836,25.879,35.645,-29.297,66.895
1584600606.114,41.504,26.367,31.738,71.777,44.922
1584600606.118,38.574,26.367,24.902,90.332,71.289
1584600606.122,4.883,25.879,29.785,-4.395,87.891
1584600606.126,-7.324,19.531,31.738,-41.504,80.566
1584600606.130,24.414,21.973,28.320,39.062,31.250
1584600606.134,37.109,25.391,29.297,101.074,24.902
1584600606.138,6.348,24.414,26.367,25.879,42.480
1584600606.142,-7.324,22.949,22.461,-53.711,2.441
1584600606.145,25.879,24.414,25.879,1.465,27.832
1584600606.149,44.434,29.297,33.691,93.262,9.277
1584600606.153,23.438,32.715,31.738,59.570,3.906
1584600606.157,-0.488,29.785,23.438,-27.832,76.660
1584600606.161,6.836,25.879,23.438,-18.555,58.594
1584600606.165,29.297,26.855,26.855,73.242,21.484
1584600606.169,24.414,25.879,29.297,80.078,7.324
1584600606.173,-2.441,24.414,27.832,-11.719,79.102
1584600606.177,2.441,26.367,24.902,-35.645,76.660
1584600606.181,44.434,30.762,26.855,54.199,-3.418
1584600606.185,49.316,30.762,28.809,95.703,-41.016
1584600606.188,15.625,24.902,31.250,14.648,-29.785
1584600606.192,6.836,26.367,31.738,-41.016,40.039
1584600606.196,34.180,26.367,33.203,33.691,75.195
1584600606.200,52.246,22.461,31.738,105.469,35.645
1584600606.204,22.461,20.020,22.461,44.434,20.020
1584600606.208,-0.977,20.020,20.020,-33.203,60.059
1584600606.212,24.414,24.902,25.879,8.789,37.109
1584600606.216,44.434,26.855,26.367,102.539,1.953
1584600606.220,27.832,24.414,25.391,74.219,35.156
1584600606.224,-0.488,25.879,22.461,-31.250,61.035
1584600606.227,11.719,27.344,21.973,-25.391,69.336
1584600606.231,45.898,27.832,25.879,82.520,76.172
1584600606.235,36.621,27.832,20.996,88.867,82.520
1584600606.239,2.441,28.320,18.066,-5.859,56.152
1584600606.243,7.324,26.367,21.973,-30.762,83.984
1584600606.247,40.039,23.926,20.020,62.500,95.703
1584600606.251,48.828,25.879,16.602,108.887,60.059
1584600606.255,17.578,24.414,20.020,25.391,23.438
1584600606.259,0.488,27.344,20.508,-37.109,43.945
1584600606.263,32.227,26.855,20.996,35.156,37.598
