timestamps,TP9,AF7,AF8,TP10,Right AUX
1584599658.376,73.242,40.039,35.645,227.051,105.957
1584599658.380,57.129,36.133,33.691,146.484,78.613
1584599658.384,4.395,24.414,31.738,-122.070,-3.418
1584599658.388,19.531,27.344,32.227,-91.797,1.953
1584599658.392,77.637,39.551,35.645,183.105,38.574
1584599658.395,71.777,33.691,35.645,202.148,47.363
1584599658.399,4.883,20.020,31.250,-62.012,-1.953
1584599658.403,-3.418,19.043,29.785,-140.625,7.324
1584599658.407,55.664,29.785,32.715,105.957,27.832
1584599658.411,75.195,35.645,31.250,227.539,43.457
1584599658.415,29.297,25.391,25.879,10.742,56.641
1584599658.419,-1.953,19.531,29.297,-161.133,17.578
1584599658.423,41.504,30.273,33.691,33.691,88.379
1584599658.427,81.055,35.156,32.227,235.840,93.262
1584599658.431,53.711,24.902,26.855,87.402,53.711
1584599658.435,2.441,17.578,25.391,-154.785,76.172
1584599658.438,29.785,28.809,30.762,-46.387,49.316
1584599658.442,85.449,40.527,34.180,215.332,55.664
1584599658.446,57.617,32.227,30.273,160.645,58.594
1584599658.450,-5.371,20.020,26.367,-113.281,37.598
1584599658.454,3.906,24.414,24.414,-120.605,24.902
1584599658.458,65.918,37.598,25.879,158.691,85.938
1584599658.462,60.059,32.715,24.902,209.473,49.805
1584599658.466,2.441,20.020,18.555,-52.246,-6.348
1584599658.470,-2.441,20.996,17.090,-162.598,-7.812
1584599658.474,48.340,30.273,22.949,81.055,-15.137
1584599658.477,57.129,32.227,27.832,229.004,12.207
1584599658.481,5.371,24.414,23.926,21.973,56.152
1584599658.485,-23.438,21.484,20.996,-173.340,71.289
1584599658.489,23.438,32.227,27.832,4.883,13.672
1584599658.493,61.035,34.180,33.203,227.051,3.906
1584599658.497,34.180,22.949,27.344,97.656,53.711
1584599658.501,-7.324,19.531,22.461,-156.250,34.668
1584599658.505,15.625,29.297,26.855,-68.359,40.039
1584599658.509,64.941,35.645,33.691,203.125,23.438
1584599658.513,52.734,32.715,35.645,171.875,-16.113
1584599658.517,-2.930,23.926,27.832,-98.145,31.738
1584599658.520,-3.906,27.344,23.438,-127.441,91.797
1584599658.524,55.664,37.598,26.855,139.160,78.125
1584599658.528,71.777,32.715,31.250,212.891,62.012
1584599658.532,19.531,21.973,29.785,-34.180,23.926
1584599658.536,-2.441,22.461,29.297,-163.086,-20.020
1584599658.540,54.688,31.250,33.691,61.523,-16.602
1584599658.544,86.914,37.598,39.062,229.492,20.996
1584599658.548,38.086,30.273,33.691,49.805,24.902
1584599658.552,-0.977,23.438,28.320,-161.621,-41.504
1584599658.556,35.156,32.715,34.668,-7.324,-7.812
1584599658.560,68.359,40.527,40.527,229.980,39.551
1584599658.563,35.156,31.250,36.621,126.465,55.176
1584599658.567,-12.695,16.602,30.762,-137.695,22.949
1584599658.571,16.113,22.949,36.621,-86.426,-15.137
1584599658.575,75.195,35.156,42.480,183.594,37.598
1584599658.579,57.617,28.320,35.645,174.805,81.055
1584599658.583,-5.859,14.648,28.809,-93.750,22.949
1584599658.587,-5.859,18.555,32.227,-151.367,-14.160
1584599658.591,52.246,34.180,36.621,108.887,8.301
1584599658.595,67.383,34.668,31.250,216.797,46.875
1584599658.599,14.160,20.508,24.902,-14.648,12.695
1584599658.602,-20.020,17.090,25.391,-172.363,5.859
1584599658.606,21.973,28.320,31.250,41.992,26.367
1584599658.610,62.988,32.227,33.203,226.074,6.836
1584599658.614,32.715,26.855,31.250,57.617,27.832
1584599658.618,-9.277,16.113,27.832,-170.410,47.852
1584599658.622,19.043,23.438,27.832,-43.457,43.945
1584599658.626,61.035,35.645,32.227,211.914,57.617
1584599658.630,37.598,25.879,29.785,134.766,58.105
1584599658.634,-8.301,15.625,20.508,-138.672,15.137
1584599658.638,7.812,20.996,23.438,-112.305,60.059
1584599658.642,58.594,30.273,31.250,169.434,60.059
1584599658.645,48.828,25.391,26.855,187.500,1.953
1584599658.649,4.883,17.578,20.996,-79.102,1.465
1584599658.653,5.371,19.531,21.484,-154.785,-63.477
1584599658.657,53.711,30.273,26.855,102.051,-9.277
1584599658.661,65.430,33.203,31.250,222.656,38.574
1584599658.665,11.230,19.531,29.785,1.953,6.836
1584599658.669,-15.625,14.160,28.320,-168.945,30.273
1584599658.673,29.297,25.879,31.738,21.484,49.316
1584599658.677,63.477,30.762,34.180,220.215,37.598
1584599658.681,35.645,23.926,30.273,77.637,33.691
1584599658.685,-14.648,13.672,26.367,-160.156,20.508
1584599658.688,11.230,20.020,31.250,-61.035,-11.719
1584599658.692,58.594,29.785,38.574,194.336,9.277
1584599658.696,40.039,27.832,31.250,140.625,58.105
1584599658.700,-8.301,17.090,20.508,-127.441,93.750
1584599658.704,-2.930,14.160,24.414,-125.488,94.727
1584599658.708,54.199,26.855,35.156,148.438,93.262
1584599658.712,49.316,27.832,36.133,200.195,34.180
1584599658.716,-8.789,13.672,27.832,-60.059,9.766
1584599658.720,-14.160,11.719,28.320,-169.922,52.734
1584599658.724,46.387,25.879,35.156,76.660,-5.859
1584599658.727,67.871,29.297,35.156,225.586,3.418
1584599658.731,17.090,20.020,30.762,23.926,25.879
1584599658.735,-11.230,16.113,30.273,-176.758,25.879
1584599658.739,44.922,27.832,29.297,-9.277,38.574
1584599658.743,74.707,34.668,27.344,223.145,-4.883
1584599658.747,32.227,22.949,24.902,108.398,50.781
1584599658.751,-8.789,11.230,21.484,-150.879,50.781
1584599658.755,4.395,18.066,25.879,-75.684,-2.930
1584599658.759,52.246,27.344,29.297,195.801,48.828
1584599658.763,44.922,22.949,23.926,169.922,68.359
1584599658.767,-8.301,17.090,21.484,-102.051,28.809
1584599658.770,2.930,21.973,24.902,-129.395,34.668
1584599658.774,59.082,28.809,30.273,142.578,44.434
1584599658.778,62.012,25.391,29.785,215.332,-8.301
1584599658.782,9.766,18.555,22.461,-37.598,-19.531
1584599658.786,-3.906,20.996,23.438,-168.457,-16.602
1584599658.790,46.387,31.250,29.785,62.012,3.906
1584599658.794,73.730,33.203,26.367,225.098,25.879
1584599658.798,31.738,24.414,21.973,41.016,19.043
1584599658.802,-2.930,18.555,22.949,-172.363,0.488
1584599658.806,43.457,27.832,24.902,-26.367,16.602
1584599658.810,84.473,34.180,26.855,214.355,55.176
1584599658.813,47.852,24.902,24.902,116.699,47.363
1584599658.817,-5.371,16.113,20.020,-141.113,5.371
1584599658.821,9.277,24.902,24.414,-87.891,-37.109
1584599658.825,55.664,36.621,32.227,178.223,-21.973
1584599658.829,51.270,35.645,30.762,179.199,-1.953
1584599658.833,-0.977,23.926,23.438,-86.426,12.207
1584599658.837,-11.230,19.531,20.996,-148.926,18.555
1584599658.841,39.062,31.250,27.832,112.793,41.504
1584599658.845,62.012,32.715,30.762,217.773,48.340
1584599658.849,18.555,21.973,25.391,-15.137,30.273
1584599658.852,-12.695,18.555,27.344,-176.758,28.809
1584599658.856,34.668,28.320,37.109,31.250,-4.883
1584599658.860,67.383,31.250,35.645,224.121,25.391
1584599658.864,28.809,24.414,26.855,58.594,42.480
1584599658.868,-4.395,20.020,25.391,-177.734,2.930
1584599658.872,25.391,29.785,33.203,-53.711,-4.395
1584599658.876,67.871,42.480,35.156,203.613,27.832
1584599658.880,44.434,31.738,30.273,134.766,8.301
1584599658.884,-7.324,17.578,25.391,-134.277,7.324
1584599658.888,3.418,22.461,30.273,-110.352,2.930
1584599658.892,56.152,32.227,33.203,164.551,19.043
1584599658.895,52.246,28.809,27.832,189.453,49.805
1584599658.899,-1.953,16.113,23.438,-72.266,37.598
1584599658.903,-6.836,18.066,26.367,-159.180,-11.230
1584599658.907,41.016,29.297,32.227,94.727,39.062
1584599658.911,56.641,29.785,27.832,226.074,77.148
1584599658.915,20.508,22.461,24.902,5.371,16.602
1584599658.919,-4.395,22.461,26.855,-174.316,0.488
1584599658.923,41.992,33.691,31.250,22.949,40.039
1584599658.927,75.684,36.133,35.645,237.305,66.406
1584599658.931,29.297,28.320,31.250,89.844,-0.488
1584599658.935,-14.648,21.484,22.949,-157.227,-41.992
1584599658.938,18.066,28.320,23.926,-57.129,-43.945
1584599658.942,69.824,38.086,29.297,208.008,5.859
1584599658.946,53.711,31.250,28.320,162.109,30.762
1584599658.950,-1.465,20.020,24.414,-115.723,15.625
1584599658.954,11.719,26.367,27.344,-123.535,-11.230
1584599658.958,68.848,38.086,32.227,149.414,0.000
1584599658.962,64.941,30.273,28.320,202.637,83.008
1584599658.966,4.883,16.113,23.438,-46.875,59.570
1584599658.970,-10.254,18.555,26.367,-159.668,62.988
1584599658.974,49.805,29.297,28.809,71.289,31.738
1584599658.977,69.824,29.785,27.832,220.703,3.418
1584599658.981,16.113,21.484,20.996,23.438,79.102
1584599658.985,-16.113,17.578,18.555,-171.387,57.129
1584599658.989,24.902,25.391,27.344,-0.488,43.457
1584599658.993,70.801,30.762,30.762,217.773,68.359
1584599658.997,41.992,28.320,29.297,97.168,21.973
1584599659.001,-18.066,20.020,28.320,-152.832,10.742
1584599659.005,-5.859,20.508,31.250,-82.031,30.762
1584599659.009,49.316,28.809,33.691,184.570,36.621
1584599659.013,47.852,28.809,30.273,166.992,23.926
1584599659.017,-1.465,21.484,23.926,-101.074,28.320
1584599659.020,-12.207,20.996,21.973,-135.742,40.039
1584599659.024,36.621,30.273,28.809,131.836,38.574
1584599659.028,58.105,34.180,34.180,214.355,42.480
1584599659.032,8.301,23.438,29.297,-30.273,30.762
1584599659.036,-19.531,20.508,24.414,-167.480,63.477
1584599659.040,25.879,28.809,31.250,56.152,41.504
1584599659.044,63.477,32.227,33.203,229.492,15.625
1584599659.048,37.598,24.902,27.344,52.246,89.355
1584599659.052,-7.324,18.066,21.484,-170.898,18.555
1584599659.056,17.578,27.832,27.344,-25.391,-14.160
1584599659.060,62.988,36.621,33.691,220.215,71.289
1584599659.063,34.180,26.855,27.832,126.953,75.195
1584599659.067,-19.043,15.137,22.949,-143.555,18.555
1584599659.071,6.836,22.949,29.297,-100.098,14.648
1584599659.075,68.359,37.109,36.621,179.688,12.695
1584599659.079,63.477,38.086,34.180,187.500,-27.344
1584599659.083,7.324,27.832,27.344,-82.520,-18.555
1584599659.087,7.324,28.809,28.320,-140.625,46.387
1584599659.091,57.129,37.109,35.645,123.047,53.223
1584599659.095,58.594,32.227,36.621,228.027,47.363
1584599659.099,16.113,24.414,29.297,-5.371,30.273
1584599659.102,-6.348,28.320,25.879,-171.875,-12.207
1584599659.106,38.086,37.598,29.785,35.156,6.836
1584599659.110,70.312,37.598,31.250,223.633,20.996
1584599659.114,38.574,31.250,25.879,57.617,1.465
1584599659.118,3.906,26.855,25.391,-167.969,-3.906
1584599659.122,32.227,32.715,28.809,-39.062,21.973
1584599659.126,69.336,41.504,31.738,216.797,63.477
1584599659.130,42.480,33.691,27.344,147.461,14.648
1584599659.134,-9.766,19.043,19.531,-127.441,-16.113
1584599659.138,7.812,24.414,22.461,-114.746,-4.883
1584599659.142,70.801,37.109,32.227,160.156,0.977
1584599659.145,64.941,31.738,29.297,191.895,32.715
1584599659.149,11.719,20.996,20.996,-71.777,60.547
1584599659.153,-1.465,17.578,24.414,-163.086,10.254
1584599659.157,43.457,28.809,31.738,86.426,8.789
1584599659.161,60.547,38.574,28.809,223.633,12.207
1584599659.165,10.254,26.367,22.461,13.184,-32.227
1584599659.169,-15.625,16.113,23.438,-171.387,27.344
1584599659.173,33.203,27.344,27.832,14.160,46.875
1584599659.177,70.801,39.551,28.809,229.004,49.316
1584599659.181,37.109,29.297,25.879,86.426,57.129
1584599659.185,-16.602,13.184,22.461,-166.992,35.156
1584599659.188,-0.488,20.508,23.438,-70.801,20.508
1584599659.192,44.922,30.762,26.367,192.871,25.391
1584599659.196,34.668,24.902,24.414,149.414,-4.883
1584599659.200,-10.742,14.160,20.508,-124.023,-0.977
1584599659.204,0.488,23.438,21.973,-132.812,20.020
1584599659.208,60.547,39.551,26.855,145.020,31.250
1584599659.212,59.082,35.645,24.414,208.008,29.785
1584599659.216,-1.465,22.949,16.113,-42.969,28.320
1584599659.220,-15.625,20.020,22.461,-160.156,65.918
1584599659.224,49.316,31.738,33.691,78.125,68.359
1584599659.227,75.684,34.180,34.180,230.469,66.406
1584599659.231,20.020,22.461,29.785,27.344,70.801
1584599659.235,-12.695,18.066,24.902,-178.711,52.246
1584599659.239,37.109,28.809,28.320,-10.742,28.809
1584599659.243,78.125,35.156,31.250,216.797,51.270
1584599659.247,43.945,26.855,26.367,93.750,75.684
1584599659.251,-3.906,21.973,24.902,-161.133,60.547
1584599659.255,21.973,25.391,26.855,-87.891,55.664
1584599659.259,79.590,32.227,32.715,185.547,57.617
1584599659.263,62.012,28.809,30.762,174.805,-2.441
1584599659.267,0.488,20.020,24.414,-93.262,-7.324
1584599659.270,-1.953,20.996,26.367,-132.812,62.012
1584599659.274,49.316,31.738,32.715,138.184,102.051
1584599659.278,64.453,34.180,31.738,215.820,60.059
1584599659.282,18.066,22.949,24.414,-34.180,2.441
1584599659.286,-4.395,18.066,20.508,-171.387,29.785
1584599659.290,37.598,25.879,29.785,50.293,19.531
1584599659.294,63.477,31.250,36.621,222.168,-18.066
1584599659.298,21.484,22.949,30.273,47.363,-19.531
1584599659.302,-19.531,15.625,25.879,-168.945,-7.812
1584599659.306,16.602,21.484,30.762,-28.809,41.504
1584599659.310,64.941,28.809,35.645,214.844,123.535
1584599659.313,49.805,23.438,35.645,126.465,64.453
1584599659.317,0.977,15.137,30.762,-136.230,-38.574
1584599659.321,9.766,22.461,30.762,-95.215,-9.277
1584599659.325,65.430,35.645,32.715,179.199,29.785
1584599659.329,64.941,31.738,32.227,192.383,26.855
1584599659.333,15.625,19.531,26.855,-77.148,31.250
1584599659.337,14.160,23.926,21.973,-147.949,9.766
1584599659.341,60.547,34.668,31.738,114.746,-22.461
1584599659.345,57.129,34.180,37.109,228.516,18.555
1584599659.349,9.277,23.438,29.785,0.488,68.359
1584599659.352,-13.672,17.090,24.902,-162.598,39.551
1584599659.356,28.320,26.855,31.738,41.992,-4.395
1584599659.360,62.012,30.273,39.551,236.816,32.227
1584599659.364,28.320,18.066,33.203,75.684,63.477
1584599659.368,-10.254,9.277,25.391,-160.156,-8.301
1584599659.372,27.344,19.531,29.785,-40.039,67.871
1584599659.376,69.824,34.180,33.691,215.820,113.281
1584599659.380,42.969,29.785,29.297,146.973,49.805
1584599659.384,-0.488,20.508,22.949,-128.418,54.688
1584599659.388,10.742,27.832,24.414,-118.652,60.547
1584599659.392,57.617,37.598,30.762,156.738,16.113
1584599659.395,63.965,29.785,30.273,189.941,-40.039
1584599659.399,16.113,21.484,26.367,-72.266,-32.715
1584599659.403,-0.977,24.414,28.320,-157.227,-8.301
1584599659.407,56.152,33.691,32.227,96.191,11.230
1584599659.411,72.754,32.715,32.715,226.562,15.137
1584599659.415,7.324,23.926,27.344,9.766,-48.828
1584599659.419,-19.531,19.531,23.926,-173.340,0.000
1584599659.423,40.039,27.832,28.809,10.254,30.762
1584599659.427,76.172,33.691,33.691,218.262,-47.363
1584599659.431,34.668,22.461,32.715,85.938,17.090
1584599659.435,-10.254,13.184,25.879,-157.715,12.695
1584599659.438,19.043,20.996,28.809,-65.918,6.836
1584599659.442,63.965,31.250,37.109,192.871,23.926
1584599659.446,41.016,28.809,35.156,154.785,-2.930
1584599659.450,-14.160,19.531,32.715,-110.352,-3.418
1584599659.454,-5.371,23.926,35.156,-128.418,1.953
1584599659.458,58.594,36.621,39.551,143.555,12.695
1584599659.462,62.012,33.691,38.086,205.078,4.883
1584599659.466,13.184,22.949,32.715,-47.363,13.672
1584599659.470,0.977,20.996,32.227,-161.133,24.414
1584599659.474,46.387,33.203,38.086,76.172,48.828
1584599659.477,71.289,41.016,40.039,234.863,82.031
1584599659.481,32.715,29.297,30.762,38.574,48.340
1584599659.485,-8.301,18.066,24.414,-172.363,0.488
1584599659.489,21.973,25.879,31.738,-7.812,0.977
1584599659.493,61.523,35.645,37.598,230.957,19.531
1584599659.497,38.574,28.809,29.785,113.770,28.320
1584599659.501,-4.395,20.508,21.973,-153.320,36.133
1584599659.505,22.461,28.320,23.926,-88.867,31.250
1584599659.509,69.824,36.621,29.785,189.453,38.086
1584599659.513,44.922,32.227,25.391,173.828,71.289
1584599659.517,-1.465,22.461,20.996,-97.656,29.785
1584599659.520,11.719,22.461,25.879,-137.695,-5.859
1584599659.524,64.941,33.203,34.668,128.418,20.508
1584599659.528,67.383,32.227,31.738,213.867,7.324
1584599659.532,11.230,20.020,23.438,-29.785,6.348
1584599659.536,-1.953,20.020,24.414,-168.945,19.043
1584599659.540,47.852,29.297,33.691,49.805,41.504
1584599659.544,70.801,35.156,40.039,228.027,31.250
1584599659.548,30.273,29.297,30.762,54.688,22.461
1584599659.552,-17.578,20.020,23.926,-171.387,26.367
1584599659.556,17.578,24.414,28.809,-35.156,47.852
1584599659.560,74.707,34.668,32.715,206.055,80.566
1584599659.563,50.781,30.762,28.320,117.188,30.762
1584599659.567,-5.859,17.090,24.414,-142.578,18.066
1584599659.571,-0.977,20.020,28.320,-103.027,-5.371
1584599659.575,41.992,29.785,32.715,165.039,-17.578
1584599659.579,43.945,30.762,31.250,173.828,29.785
1584599659.583,-7.324,20.996,28.809,-85.938,41.504
1584599659.587,-14.648,17.090,30.762,-155.273,40.527
1584599659.591,41.992,26.367,38.086,101.562,60.059
1584599659.595,60.547,27.832,36.133,218.262,25.879
1584599659.599,11.230,21.484,28.809,-7.812,13.672
1584599659.602,-15.625,20.020,24.902,-179.688,-39.551
1584599659.606,33.691,30.273,30.762,25.879,-39.551
1584599659.610,72.266,36.621,35.645,233.398,41.992
1584599659.614,31.738,25.391,28.809,80.566,53.223
1584599659.618,-22.949,15.625,24.902,-158.691,48.828
1584599659.622,7.812,23.926,31.738,-46.387,73.242
1584599659.626,58.594,33.203,37.109,208.496,60.547
1584599659.630,43.457,30.273,32.715,146.484,68.359
1584599659.634,-5.371,19.043,24.902,-125.977,36.621
1584599659.638,8.789,22.949,20.996,-120.605,2.441
1584599659.642,64.941,37.109,24.414,155.273,25.879
1584599659.645,59.082,34.668,24.902,199.219,67.383
1584599659.649,1.465,20.020,19.043,-62.500,83.008
1584599659.653,-9.766,19.043,18.555,-162.109,55.664
1584599659.657,44.434,32.227,28.320,86.426,95.215
1584599659.661,66.406,32.715,32.227,219.727,36.621
1584599659.665,21.973,19.531,23.926,0.000,-31.250
1584599659.669,-20.508,17.090,23.926,-185.547,4.883
1584599659.673,14.160,28.320,29.785,5.371,7.324
1584599659.677,59.082,33.691,29.297,220.703,24.902
1584599659.681,35.156,22.949,26.855,81.543,20.020
1584599659.685,-1.953,14.160,24.414,-168.945,32.715
1584599659.688,26.855,18.555,28.320,-77.637,11.230
1584599659.692,67.383,24.414,36.133,190.430,-29.297
1584599659.696,32.715,25.391,36.621,152.832,22.461
1584599659.700,-21.973,23.926,29.785,-121.094,18.555
1584599659.704,-6.836,25.391,25.391,-141.113,-1.953
1584599659.708,58.105,32.227,27.344,130.371,40.527
1584599659.712,67.871,30.273,25.391,191.895,78.125
1584599659.716,13.184,22.461,20.020,-56.152,76.660
1584599659.720,-6.836,19.043,21.973,-174.805,40.527
1584599659.724,34.180,23.926,27.344,61.523,42.969
1584599659.727,45.410,26.855,31.738,223.633,22.949
1584599659.731,6.836,19.531,28.320,30.762,-25.879
1584599659.735,-14.160,15.625,24.902,-172.852,20.020
1584599659.739,30.273,26.855,28.320,-14.160,13.672
1584599659.743,69.336,33.691,32.227,215.820,15.137
1584599659.747,33.203,24.414,29.297,109.863,50.293
1584599659.751,-12.695,14.648,22.461,-146.973,49.316
1584599659.755,6.348,20.996,23.926,-94.238,28.809
1584599659.759,54.199,33.203,31.738,173.828,-0.977
1584599659.763,50.293,30.273,30.762,171.387,0.000
1584599659.767,-5.859,22.949,21.484,-98.633,-31.738
1584599659.770,-16.113,24.414,20.508,-151.367,-51.758
1584599659.774,48.340,31.738,31.250,113.770,11.719
1584599659.778,70.312,35.156,33.691,207.031,39.062
1584599659.782,12.695,24.414,25.879,-30.273,43.457
1584599659.786,-19.531,20.508,26.367,-172.852,0.000
1584599659.790,23.926,32.227,29.785,47.363,5.371
1584599659.794,57.129,31.738,27.832,224.121,7.324
1584599659.798,15.625,17.578,22.461,46.875,36.133
1584599659.802,-30.273,10.742,19.043,-181.641,18.066
1584599659.806,8.301,22.949,21.973,-44.922,-14.160
1584599659.810,56.641,31.738,26.855,208.496,63.965
1584599659.813,32.227,23.926,28.320,120.605,66.406
1584599659.817,-17.090,16.113,21.484,-154.785,33.203
1584599659.821,-2.441,20.508,19.043,-117.188,39.062
1584599659.825,49.805,30.762,25.879,166.504,61.523
1584599659.829,47.852,29.297,24.414,185.547,69.336
1584599659.833,-0.977,19.043,20.508,-80.078,42.969
1584599659.837,-12.207,17.578,23.438,-151.855,19.531
1584599659.841,39.062,25.879,30.762,106.934,30.762
1584599659.845,58.594,27.832,34.180,219.238,36.133
1584599659.849,14.160,20.508,27.344,-9.277,11.719
1584599659.852,-8.789,18.066,23.926,-181.641,14.160
1584599659.856,32.227,28.809,27.344,19.531,50.293
1584599659.860,66.895,32.715,29.785,219.727,23.438
1584599659.864,34.180,27.832,28.809,65.430,-53.223
1584599659.868,-14.160,22.949,27.344,-164.551,-0.488
1584599659.872,20.508,29.297,30.762,-46.875,26.855
1584599659.876,70.801,40.039,32.227,208.984,21.973
1584599659.880,48.340,32.227,27.832,151.855,39.551
1584599659.884,-16.113,20.020,24.902,-118.164,7.812
1584599659.888,-4.883,28.320,28.809,-118.652,24.414
1584599659.892,60.059,36.621,32.227,154.297,38.086
1584599659.895,61.523,30.762,27.344,196.777,3.906
1584599659.899,-3.418,21.973,23.926,-59.570,15.625
1584599659.903,-16.113,21.484,30.273,-160.156,6.836
1584599659.907,39.551,32.227,37.598,83.496,15.137
1584599659.911,56.641,33.691,38.086,228.516,43.945
1584599659.915,15.625,19.531,32.227,20.508,79.590
1584599659.919,-19.531,12.695,29.297,-166.992,87.402
1584599659.923,24.414,26.367,32.227,13.672,62.500
1584599659.927,71.777,35.645,34.668,229.004,50.781
1584599659.931,43.457,24.414,33.691,97.168,52.246
1584599659.935,-6.348,18.066,28.809,-156.738,32.715
1584599659.938,20.996,28.320,30.762,-78.125,38.086
1584599659.942,74.219,38.086,36.621,188.477,45.410
1584599659.946,54.199,31.738,32.715,159.668,16.113
1584599659.950,-2.930,19.531,26.367,-117.676,11.230
1584599659.954,5.371,24.414,27.832,-141.602,9.766
1584599659.958,58.594,37.598,31.738,136.230,33.691
1584599659.962,61.035,34.668,33.203,209.961,40.039
1584599659.966,1.465,17.578,30.762,-37.598,3.906
1584599659.970,-19.043,15.625,22.461,-165.039,-9.277
1584599659.974,37.109,29.785,27.344,65.918,-13.184
1584599659.977,67.383,35.645,32.715,229.980,-29.297
1584599659.981,34.668,27.344,27.832,40.527,-0.488
1584599659.985,-1.465,22.461,25.391,-170.898,52.734
1584599659.989,29.785,27.344,29.785,-14.648,47.363
1584599659.993,57.617,27.344,33.203,217.773,54.688
1584599659.997,29.785,20.508,33.203,111.816,63.477
1584599660.001,-5.859,15.625,33.203,-145.508,22.461
1584599660.005,12.695,21.973,35.645,-82.520,-15.625
1584599660.009,70.801,34.180,41.016,195.312,62.012
1584599660.013,58.594,30.762,35.645,182.617,123.535
1584599660.017,-1.465,19.531,28.320,-93.750,62.012
1584599660.020,1.953,24.414,26.855,-141.113,65.918
1584599660.024,57.617,37.598,31.250,123.535,73.730
1584599660.028,63.965,36.621,32.227,220.215,41.992
1584599660.032,12.207,24.902,26.855,-11.719,-16.602
1584599660.036,-13.672,22.461,22.949,-164.551,-22.949
1584599660.040,32.227,31.250,27.344,46.875,3.418
1584599660.044,66.406,38.574,33.691,233.398,-35.645
1584599660.048,22.949,29.785,28.320,67.871,46.387
1584599660.052,-25.391,19.043,16.113,-159.180,41.016
1584599660.056,13.672,28.809,20.508,-33.203,-32.227
1584599660.060,66.406,40.039,30.762,213.379,6.348
1584599660.063,41.992,37.598,27.344,133.789,33.203
1584599660.067,-4.883,26.367,23.926,-131.836,29.785
1584599660.071,9.766,26.855,28.320,-105.469,61.035
1584599660.075,61.035,41.992,36.133,168.457,41.504
1584599660.079,65.918,43.457,36.133,192.871,-2.441
1584599660.083,14.648,27.344,28.320,-70.312,-18.555
1584599660.087,-5.371,26.855,27.344,-151.367,2.441
1584599660.091,48.340,39.551,35.645,105.957,35.645
1584599660.095,72.754,41.504,35.156,229.492,29.297
1584599660.099,20.020,29.785,27.344,7.324,28.809
1584599660.102,-16.602,26.855,22.949,-164.551,34.668
1584599660.106,25.879,38.086,31.738,27.832,-5.859
1584599660.110,61.523,38.574,38.086,232.422,-19.531
1584599660.114,30.762,31.250,31.738,86.914,17.578
1584599660.118,-11.230,25.391,32.715,-156.738,7.324
1584599660.122,16.113,29.297,35.156,-54.199,12.207
1584599660.126,70.312,41.992,35.645,205.078,10.742
1584599660.130,49.316,36.133,30.273,145.508,5.371
1584599660.134,-6.836,20.020,23.438,-132.812,6.836
1584599660.138,3.906,25.879,27.832,-129.883,-16.602
1584599660.142,61.523,36.133,35.645,154.785,20.996
1584599660.145,62.988,32.227,34.180,198.730,32.227
1584599660.149,0.488,23.438,26.855,-64.941,-50.293
1584599660.153,-19.531,23.438,28.809,-161.133,-26.855
1584599660.157,40.039,35.156,36.133,87.891,69.824
1584599660.161,66.406,37.598,32.227,229.004,31.250
1584599660.165,23.926,24.902,26.367,20.996,17.578
1584599660.169,-12.695,19.043,26.367,-177.246,77.148
1584599660.173,24.902,30.273,31.250,-4.395,40.527
1584599660.177,64.453,32.715,39.062,212.891,41.016
1584599660.181,26.855,20.508,38.086,89.844,86.914
1584599660.185,-25.879,7.812,30.273,-151.855,53.223
1584599660.188,6.348,16.602,32.715,-73.730,55.176
1584599660.192,50.781,32.715,36.621,175.293,44.922
1584599660.196,22.461,29.785,31.250,136.719,-12.207
1584599660.200,-20.508,18.555,27.344,-125.000,28.809
1584599660.204,-13.184,20.020,34.668,-151.367,42.480
1584599660.208,36.133,34.668,41.016,115.723,19.043
1584599660.212,41.504,32.715,39.062,195.801,23.926
1584599660.216,-9.277,21.973,27.344,-49.805,22.461
1584599660.220,-22.949,22.461,20.020,-180.176,50.781
1584599660.224,41.504,32.715,23.926,46.387,64.453
1584599660.227,68.359,36.621,26.367,210.449,30.762
1584599660.231,9.277,26.367,25.879,29.785,-1.953
1584599660.235,-36.133,19.043,21.484,-182.129,6.348
1584599660.239,2.441,34.180,20.508,-33.203,49.805
1584599660.243,52.734,47.852,24.414,205.078,81.543
1584599660.247,23.926,36.133,22.461,101.074,33.691
1584599660.251,-27.344,24.414,19.531,-159.180,-62.988
1584599660.255,0.488,31.738,22.461,-104.492,-18.555
1584599660.259,55.664,43.457,29.297,173.828,42.969
1584599660.263,43.945,35.156,27.832,172.852,61.523
1584599660.267,-7.324,20.020,18.555,-104.004,43.945
1584599660.270,-0.977,26.367,19.043,-156.738,42.480
1584599660.274,54.688,37.109,30.273,110.352,8.301
1584599660.278,60.547,30.273,32.227,210.938,-22.949
1584599660.282,4.395,17.090,25.391,-27.344,-10.742
1584599660.286,-18.555,16.113,24.414,-183.594,-16.602
1584599660.290,32.227,28.809,32.227,34.180,34.180
1584599660.294,72.754,31.738,34.668,223.633,4.395
1584599660.298,37.598,19.531,30.762,59.570,-30.273
1584599660.302,-15.625,14.648,25.879,-167.969,55.176
1584599660.306,12.695,22.461,25.391,-43.945,97.656
1584599660.310,62.012,34.668,29.297,206.055,23.926
1584599660.313,36.621,34.180,27.832,129.883,-0.977
1584599660.317,-11.719,20.508,21.973,-136.719,48.828
1584599660.321,6.836,23.438,23.438,-107.422,32.227
1584599660.325,61.035,34.668,30.762,164.551,28.320
1584599660.329,58.105,32.227,28.320,180.176,38.086
1584599660.333,2.930,22.949,20.508,-81.543,32.227
1584599660.337,-5.371,22.949,20.508,-155.762,42.969
1584599660.341,51.270,33.203,28.809,98.633,49.805
1584599660.345,75.684,36.133,29.785,220.703,95.215
1584599660.349,21.973,22.949,21.973,-4.395,88.867
1584599660.352,-20.996,13.672,21.484,-183.105,47.363
1584599660.356,20.020,25.879,29.785,18.066,69.336
1584599660.360,56.152,35.156,34.180,225.586,36.621
1584599660.364,20.508,31.250,29.297,77.637,10.742
1584599660.368,-24.902,21.973,18.555,-166.504,48.828
1584599660.372,13.184,26.367,19.531,-62.988,14.648
1584599660.376,62.012,36.621,30.273,199.219,-30.762
1584599660.380,36.621,29.297,31.250,149.902,-2.930
1584599660.384,-12.695,19.531,27.344,-121.582,8.301
1584599660.388,3.418,24.902,27.344,-124.512,-7.812
1584599660.392,54.199,34.180,31.250,152.832,51.758
1584599660.395,48.828,27.832,29.785,201.660,127.930
1584599660.399,0.000,15.137,20.020,-62.012,111.816
1584599660.403,-13.184,17.578,20.020,-167.969,109.375
1584599660.407,40.039,32.227,30.762,80.078,100.586
1584599660.411,70.801,34.180,29.297,229.004,65.430
1584599660.415,29.297,21.484,21.973,17.090,25.391
1584599660.419,-12.695,15.137,22.461,-183.105,35.645
1584599660.423,24.414,28.809,28.809,0.000,-7.324
1584599660.427,62.988,37.598,31.250,231.445,-18.555
1584599660.431,25.879,30.273,28.809,106.934,50.293
1584599660.435,-19.531,20.020,27.832,-148.926,28.809
1584599660.438,8.301,23.438,28.809,-71.289,16.602
1584599660.442,67.383,34.668,28.809,194.336,40.527
1584599660.446,53.711,27.832,27.344,169.922,29.785
1584599660.450,-1.465,14.160,24.414,-104.980,0.000
1584599660.454,3.418,20.996,24.414,-134.277,-16.602
1584599660.458,62.988,37.109,30.762,139.160,-34.668
1584599660.462,75.684,36.133,34.668,208.496,-52.734
1584599660.466,20.508,27.344,32.227,-35.645,-26.367
1584599660.470,1.953,27.344,27.832,-162.598,-15.137
1584599660.474,41.992,37.109,33.203,66.406,4.883
1584599660.477,59.082,40.527,36.133,239.258,52.734
1584599660.481,17.578,32.227,30.762,52.246,45.898
1584599660.485,-14.160,26.367,26.367,-166.016,28.320
1584599660.489,22.949,33.203,28.809,-18.066,15.137
1584599660.493,62.012,38.574,35.645,221.191,-3.906
1584599660.497,40.039,30.762,32.715,123.535,45.410
1584599660.501,-1.953,19.531,22.949,-139.160,57.129
1584599660.505,13.672,24.414,26.367,-91.797,1.953
1584599660.509,67.871,34.668,31.738,179.199,6.348
1584599660.513,57.617,32.227,30.762,182.617,-4.883
1584599660.517,-5.859,24.414,26.367,-81.055,40.527
1584599660.520,-6.836,26.367,23.926,-147.949,69.824
1584599660.524,53.223,38.574,32.715,111.328,47.852
1584599660.528,67.383,35.156,32.227,220.215,60.059
1584599660.532,16.602,19.043,22.461,-10.254,42.480
1584599660.536,-0.977,18.066,23.926,-166.992,41.504
1584599660.540,49.316,29.297,31.738,41.016,65.430
1584599660.544,67.871,31.738,32.227,229.492,57.129
1584599660.548,20.508,24.414,26.367,65.430,45.410
1584599660.552,-20.996,15.137,22.949,-168.945,30.273
1584599660.556,13.672,22.949,25.391,-47.852,13.672
1584599660.560,58.105,36.133,28.320,206.055,36.621
1584599660.563,35.156,28.320,22.461,134.277,23.926
1584599660.567,-13.672,19.043,17.090,-134.766,15.137
1584599660.571,4.395,27.344,26.367,-106.934,41.016
1584599660.575,61.035,35.645,29.785,169.434,91.309
1584599660.579,66.895,33.691,25.879,196.289,66.406
1584599660.583,3.906,26.367,22.949,-69.336,-8.789
1584599660.587,-22.949,21.973,24.414,-155.273,-32.227
1584599660.591,33.691,30.762,31.738,96.191,-57.129
1584599660.595,52.246,35.645,29.297,219.727,-5.859
1584599660.599,11.719,27.832,23.926,3.418,16.602
1584599660.602,-14.160,22.949,24.902,-172.852,-27.832
1584599660.606,24.414,30.273,31.250,19.531,17.578
1584599660.610,58.105,34.668,33.691,224.121,32.227
1584599660.614,23.926,25.879,24.902,76.172,14.160
1584599660.618,-11.719,21.484,19.531,-165.039,38.086
1584599660.622,18.066,28.320,25.391,-62.500,47.363
1584599660.626,59.570,33.203,31.250,199.707,70.312
1584599660.630,48.340,31.250,32.715,151.855,25.391
1584599660.634,-4.883,20.020,30.273,-115.723,-61.523
1584599660.638,-6.348,20.020,29.785,-123.047,-53.223
1584599660.642,52.246,35.645,34.180,145.020,-33.691
1584599660.645,64.941,37.109,32.715,197.754,-16.602
1584599660.649,14.160,23.438,26.367,-56.641,-14.160
1584599660.653,-7.324,18.555,23.926,-168.457,3.418
1584599660.657,41.016,31.250,30.273,67.871,61.035
1584599660.661,65.430,37.109,36.621,226.074,97.656
1584599660.665,22.461,29.785,29.785,31.738,96.680
1584599660.669,-13.184,26.855,23.926,-166.504,70.801
1584599660.673,29.785,35.645,28.320,1.465,67.383
1584599660.677,68.848,41.992,35.645,226.562,43.945
1584599660.681,33.203,30.762,32.715,110.840,41.016
1584599660.685,-14.160,19.531,23.926,-147.461,62.988
1584599660.688,6.836,27.344,25.879,-78.613,19.531
1584599660.692,63.965,40.039,32.715,195.312,-2.930
1584599660.696,54.199,36.133,31.250,171.875,57.129
1584599660.700,-2.441,22.461,23.438,-108.887,74.219
1584599660.704,-0.488,26.367,25.391,-139.160,52.734
1584599660.708,51.270,38.086,31.250,135.742,49.805
1584599660.712,64.453,37.109,27.344,214.844,72.266
1584599660.716,15.625,26.855,20.020,-33.691,62.988
1584599660.720,-11.230,23.926,17.578,-170.410,19.531
1584599660.724,39.062,32.715,23.926,60.059,48.828
1584599660.727,68.848,37.109,26.367,231.934,61.523
1584599660.731,29.785,26.367,17.578,45.410,26.367
1584599660.735,-4.395,19.043,15.137,-171.875,67.383
1584599660.739,31.250,31.250,23.438,-20.020,38.574
1584599660.743,74.219,39.062,30.762,221.191,-0.488
1584599660.747,43.457,28.320,29.785,116.699,24.414
1584599660.751,-0.977,18.555,24.414,-149.902,27.832
1584599660.755,10.254,24.902,28.320,-92.285,37.598
1584599660.759,46.875,32.715,34.668,187.500,35.156
1584599660.763,44.922,30.273,34.180,187.500,36.133
1584599660.767,-2.441,19.531,28.320,-84.473,0.000
1584599660.770,-2.930,19.043,26.367,-147.461,42.480
1584599660.774,48.828,31.250,32.227,116.211,20.996
1584599660.778,63.965,31.738,32.227,222.168,11.230
1584599660.782,20.020,20.996,23.926,-9.766,68.359
1584599660.786,-3.418,17.090,20.996,-172.363,32.227
1584599660.790,48.828,26.367,29.297,27.832,23.926
1584599660.794,81.543,35.156,34.180,221.191,63.965
1584599660.798,36.133,26.367,29.297,63.965,53.711
1584599660.802,-7.812,18.066,25.391,-166.992,-18.555
1584599660.806,25.391,28.809,29.785,-47.852,-12.207
1584599660.810,71.289,36.621,37.109,204.590,35.645
1584599660.813,41.504,28.809,32.715,133.301,-6.836
1584599660.817,-11.230,19.043,25.391,-133.789,-47.363
1584599660.821,-0.977,25.879,29.785,-112.793,-14.648
1584599660.825,56.152,39.551,34.668,160.156,34.180
1584599660.829,61.523,36.621,30.273,192.871,15.137
1584599660.833,0.977,21.484,22.949,-70.312,-8.301
1584599660.837,-11.719,21.484,26.367,-164.551,48.340
1584599660.841,45.898,33.691,36.621,90.820,65.430
1584599660.845,68.848,35.645,40.527,225.098,31.738
1584599660.849,20.508,24.414,32.227,3.906,28.809
1584599660.852,-9.766,18.066,21.484,-182.617,41.504
1584599660.856,31.250,27.832,27.344,4.883,20.996
1584599660.860,65.918,35.645,33.691,218.750,8.301
1584599660.864,25.391,24.902,30.273,81.055,12.695
1584599660.868,-20.020,17.578,23.926,-161.621,30.273
1584599660.872,24.414,28.809,26.855,-48.828,48.340
1584599660.876,84.961,34.180,35.156,211.426,42.969
1584599660.880,48.340,24.902,30.762,141.602,28.809
1584599660.884,-21.484,12.695,24.902,-133.301,21.484
1584599660.888,-9.766,16.113,32.715,-128.418,0.000
1584599660.892,47.363,27.832,45.410,152.344,22.461
1584599660.895,45.898,24.902,42.969,198.730,30.273
1584599660.899,-8.789,14.160,32.227,-62.012,-44.434
1584599660.903,-18.066,12.695,29.785,-170.410,-12.695
1584599660.907,44.434,23.438,35.645,72.266,10.742
1584599660.911,70.801,28.320,38.086,229.004,-6.836
1584599660.915,20.020,22.461,34.180,32.715,14.160
1584599660.919,-15.625,17.090,35.156,-170.898,57.617
1584599660.923,28.809,24.414,40.527,-3.906,48.340
1584599660.927,63.477,32.227,38.086,225.586,26.367
1584599660.931,26.367,22.949,32.227,105.957,14.648
1584599660.935,-20.508,14.648,31.250,-150.879,23.926
1584599660.938,4.395,22.461,34.668,-83.496,66.406
1584599660.942,57.617,34.668,38.574,178.223,72.266
1584599660.946,51.758,32.227,32.715,160.156,30.762
1584599660.950,4.883,19.043,25.879,-109.375,44.922
1584599660.954,-4.883,21.973,29.297,-146.484,60.059
1584599660.958,43.457,37.109,36.621,124.512,19.531
1584599660.962,61.035,36.621,35.156,205.078,48.340
1584599660.966,10.254,24.902,24.902,-33.691,57.129
1584599660.970,-13.184,23.438,26.367,-167.480,44.922
1584599660.974,37.109,33.691,32.227,48.828,52.734
1584599660.977,57.617,35.645,28.809,223.145,35.645
1584599660.981,19.043,24.902,22.949,49.316,51.270
1584599660.985,-20.996,15.625,20.996,-173.340,48.828
1584599660.989,7.812,23.926,30.273,-33.203,33.691
1584599660.993,61.523,32.715,36.133,211.914,22.461
1584599660.997,39.551,27.344,30.273,116.211,29.297
1584599661.001,-16.113,17.090,24.414,-146.973,28.320
1584599661.005,-7.324,20.508,27.344,-98.633,-20.508
1584599661.009,42.480,31.738,31.250,176.758,15.137
1584599661.013,42.480,28.320,29.297,177.246,63.965
1584599661.017,-8.301,18.555,24.902,-95.215,36.133
1584599661.020,-15.625,22.461,26.367,-162.109,18.555
1584599661.024,42.480,35.156,32.715,100.098,18.066
1584599661.028,64.941,31.738,33.203,209.961,-3.418
1584599661.032,21.973,18.555,22.949,-25.391,-6.348
1584599661.036,-3.418,18.066,21.973,-182.129,27.344
1584599661.040,37.109,29.785,30.273,30.762,40.527
1584599661.044,61.523,33.691,36.621,228.516,49.316
1584599661.048,27.832,23.926,33.691,67.871,49.316
1584599661.052,-5.859,21.484,27.344,-168.457,-18.066
1584599661.056,24.414,30.273,28.320,-53.711,-29.785
1584599661.060,70.312,38.086,31.250,198.730,9.277
1584599661.063,47.852,35.645,31.250,138.184,6.348
1584599661.067,-10.742,20.996,29.785,-130.371,-16.602
1584599661.071,-12.207,19.531,31.738,-114.746,-3.418
1584599661.075,43.457,31.250,41.992,165.039,33.203
1584599661.079,52.246,34.180,43.945,200.684,21.484
1584599661.083,3.418,23.926,31.738,-60.547,-1.465
1584599661.087,-0.488,20.508,26.855,-152.344,59.570
1584599661.091,44.922,31.250,30.273,94.238,57.129
1584599661.095,55.176,35.156,33.203,227.539,-0.488
1584599661.099,7.812,23.926,31.250,18.066,-40.527
1584599661.102,-24.902,18.555,32.227,-165.039,18.066
1584599661.106,21.484,29.297,36.133,18.555,61.035
1584599661.110,61.523,34.180,37.598,228.027,37.598
1584599661.114,32.715,24.902,30.762,89.844,34.180
1584599661.118,-18.555,15.625,27.832,-159.180,39.551
1584599661.122,2.441,21.484,34.668,-71.777,73.730
1584599661.126,55.664,29.297,39.551,186.523,67.871
1584599661.130,38.086,21.973,36.133,144.531,20.508
1584599661.134,-17.090,12.207,24.414,-125.488,37.598
1584599661.138,-3.906,19.043,22.461,-141.602,28.320
1584599661.142,56.641,31.738,29.785,131.348,20.996
1584599661.145,59.570,32.715,29.297,202.637,38.086
1584599661.149,-0.977,20.020,24.414,-49.805,31.250
1584599661.153,-26.367,16.602,22.949,-174.316,41.504
1584599661.157,27.344,26.855,29.297,64.941,28.320
1584599661.161,50.293,31.250,33.203,226.562,5.371
1584599661.165,10.742,20.508,26.367,25.879,27.832
1584599661.169,-16.113,16.113,20.020,-187.012,67.383
1584599661.173,25.879,28.809,23.926,-18.066,44.434
1584599661.177,74.707,32.715,31.250,220.215,20.508
1584599661.181,48.340,24.902,29.785,106.445,31.250
1584599661.185,-6.836,19.531,28.809,-143.555,24.414
1584599661.188,9.766,27.344,33.203,-76.660,20.020
1584599661.192,57.129,34.180,35.156,189.941,1.953
1584599661.196,46.875,29.785,31.738,173.828,25.879
1584599661.200,-5.371,20.020,26.855,-103.027,29.297
1584599661.204,0.488,23.438,31.250,-142.090,28.809
1584599661.208,59.570,37.598,39.062,126.465,21.973
1584599661.212,65.918,40.039,38.086,206.543,38.086
1584599661.216,16.113,27.832,33.203,-31.738,5.371
1584599661.220,-7.324,20.996,32.227,-168.945,10.254
1584599661.224,36.133,29.785,35.645,54.688,85.938
1584599661.227,69.824,38.574,37.598,237.793,81.055
1584599661.231,32.715,34.180,33.203,60.547,41.992
1584599661.235,-9.277,25.879,23.926,-166.504,29.297
1584599661.239,27.344,33.203,25.391,-29.785,19.531
1584599661.243,71.289,38.574,31.738,210.938,-41.016
1584599661.247,38.574,29.297,30.273,120.605,-20.508
1584599661.251,-22.949,16.602,24.902,-142.090,27.344
1584599661.255,-6.348,20.996,28.809,-102.051,19.531
1584599661.259,62.012,35.645,36.621,176.758,7.324
1584599661.263,63.965,30.762,36.133,190.918,28.809
1584599661.267,6.348,17.090,26.855,-76.172,42.480
1584599661.270,-4.883,18.555,20.996,-154.297,46.875
1584599661.274,44.922,28.809,29.785,95.215,40.039
1584599661.278,60.547,30.273,33.691,214.355,49.805
1584599661.282,11.230,20.508,25.879,-8.789,49.805
1584599661.286,-14.648,18.555,23.438,-178.711,41.504
1584599661.290,33.203,28.320,26.855,23.438,59.570
1584599661.294,67.871,31.738,28.809,227.051,52.734
1584599661.298,34.180,22.461,24.414,72.266,23.926
1584599661.302,-13.184,16.602,19.531,-166.504,-37.598
1584599661.306,5.859,25.879,28.320,-51.758,-66.406
1584599661.310,50.293,33.203,34.668,202.637,-8.301
1584599661.313,46.387,27.832,27.344,138.184,0.977
1584599661.317,2.930,21.973,18.555,-136.230,3.418
1584599661.321,4.395,21.973,24.902,-120.605,25.879
1584599661.325,46.387,26.855,32.227,161.133,27.344
1584599661.329,48.340,28.320,24.902,199.707,47.852
1584599661.333,4.395,18.066,17.090,-59.570,86.914
1584599661.337,-13.672,15.625,20.020,-156.738,47.852
1584599661.341,35.645,24.414,28.320,86.914,-18.066
1584599661.345,60.059,25.879,33.203,222.168,14.648
1584599661.349,14.648,18.066,29.785,12.207,-16.113
1584599661.352,-17.578,14.160,23.926,-175.293,10.254
1584599661.356,35.645,25.879,27.344,10.742,63.477
1584599661.360,74.219,32.715,35.645,229.492,44.922
1584599661.364,33.691,28.809,31.250,92.773,40.039
1584599661.368,-8.789,23.438,20.508,-155.762,37.598
1584599661.372,9.277,23.926,22.461,-69.336,35.645
1584599661.376,54.199,35.156,27.344,194.824,26.855
1584599661.380,43.457,32.715,25.391,156.250,-4.395
1584599661.384,-6.348,20.508,21.973,-116.211,-18.066
1584599661.388,9.766,23.438,23.926,-133.301,-24.902
1584599661.392,69.824,36.133,30.762,141.602,14.648
1584599661.395,72.266,37.109,32.227,211.914,71.777
1584599661.399,18.066,28.320,28.809,-35.156,65.430
1584599661.403,-6.836,23.926,28.809,-160.156,53.223
1584599661.407,46.387,36.621,34.180,66.895,52.246
1584599661.411,71.289,43.945,35.645,230.469,57.129
1584599661.415,19.531,30.762,28.809,35.645,49.805
1584599661.419,-18.555,22.949,24.414,-178.223,38.574
1584599661.423,20.020,31.738,30.273,-14.648,43.457
1584599661.427,59.570,39.551,36.621,223.145,62.988
1584599661.431,36.133,32.715,35.645,116.699,41.992
1584599661.435,-6.836,23.438,33.691,-144.531,65.918
1584599661.438,10.254,28.809,37.109,-84.473,73.730
1584599661.442,68.359,40.527,41.992,187.012,38.086
1584599661.446,65.430,36.621,40.039,176.758,32.715
1584599661.450,6.348,22.949,30.273,-102.051,-50.293
1584599661.454,0.488,28.809,32.227,-153.320,-18.555
1584599661.458,50.293,41.504,43.457,122.070,50.293
1584599661.462,58.594,38.086,40.527,218.262,62.012
1584599661.466,8.301,29.297,30.762,-20.020,58.594
1584599661.470,-14.160,25.391,26.855,-163.086,24.414
1584599661.474,37.598,34.180,31.738,52.734,27.832
1584599661.477,74.707,35.645,36.133,229.004,5.859
1584599661.481,41.992,26.367,32.715,57.129,16.113
1584599661.485,-12.207,20.020,25.879,-166.504,72.754
1584599661.489,7.324,27.832,29.297,-32.715,57.617
1584599661.493,55.664,32.227,35.645,206.543,26.855
1584599661.497,34.668,25.879,30.273,116.211,30.273
1584599661.501,-5.859,22.461,25.391,-146.484,42.969
1584599661.505,13.184,28.320,31.738,-101.562,48.828
1584599661.509,62.012,36.621,38.086,182.129,50.781
1584599661.513,52.734,28.320,33.203,193.848,15.625
1584599661.517,4.395,17.090,26.367,-75.195,10.254
1584599661.520,7.324,17.578,24.414,-148.926,73.730
1584599661.524,62.012,29.785,28.320,103.027,54.199
1584599661.528,72.754,33.203,27.832,217.773,31.738
1584599661.532,13.672,20.996,23.438,-4.395,63.965
1584599661.536,-27.344,16.602,25.879,-163.574,46.387
1584599661.540,18.555,26.855,31.250,31.738,28.809
1584599661.544,56.641,32.715,30.273,222.168,54.199
1584599661.548,23.926,25.391,26.367,73.242,74.707
1584599661.552,-14.160,13.672,24.414,-165.527,62.500
1584599661.556,11.719,21.973,30.762,-54.199,53.223
1584599661.560,58.594,35.645,35.645,203.125,47.363
1584599661.563,39.062,32.715,26.367,139.160,14.160
1584599661.567,-21.484,20.996,22.461,-132.812,31.738
1584599661.571,-16.602,24.414,28.320,-126.953,20.020
1584599661.575,40.039,39.551,31.738,151.367,-3.906
1584599661.579,50.781,39.551,29.297,199.707,21.484
1584599661.583,2.930,25.879,24.902,-58.594,66.406
1584599661.587,-9.277,26.855,27.344,-161.133,23.926
1584599661.591,49.316,43.457,34.180,83.984,18.555
1584599661.595,69.336,42.969,35.645,230.469,85.449
1584599661.599,23.438,25.879,27.832,20.996,52.246
1584599661.602,-2.930,18.555,21.484,-172.852,-12.695
1584599661.606,40.527,31.250,30.273,10.742,22.461
1584599661.610,71.777,41.992,39.551,235.352,44.922
1584599661.614,30.273,33.203,29.297,102.051,4.883
1584599661.618,-16.113,19.531,19.043,-157.715,-15.137
1584599661.622,20.020,26.367,25.879,-73.730,-29.785
1584599661.626,70.312,37.598,34.668,194.824,-19.531
1584599661.630,48.828,29.785,32.715,164.551,-18.555
1584599661.634,-4.883,18.555,28.320,-109.375,-5.371
1584599661.638,1.465,23.438,31.250,-135.254,18.555
1584599661.642,66.406,35.156,35.156,141.113,-6.836
1584599661.645,67.383,30.762,34.668,211.914,10.742
1584599661.649,3.906,19.531,28.320,-40.527,11.719
1584599661.653,-15.625,19.043,26.367,-163.086,13.184
1584599661.657,35.156,28.320,32.715,71.777,28.809
1584599661.661,65.918,34.180,36.133,233.398,-41.992
1584599661.665,31.250,27.832,30.762,41.016,-25.391
1584599661.669,-5.859,20.508,27.832,-168.945,20.020
1584599661.673,33.203,29.785,31.250,-6.348,22.949
1584599661.677,82.031,36.621,33.203,225.586,27.832
1584599661.681,55.664,26.855,28.320,115.234,52.734
1584599661.685,5.859,18.066,23.926,-140.137,33.203
1584599661.688,23.926,23.438,27.344,-82.031,16.113
1584599661.692,62.988,27.832,32.227,181.152,63.477
1584599661.696,43.457,23.926,33.203,175.293,19.043
1584599661.700,-8.301,16.113,29.297,-85.938,44.922
1584599661.704,-4.883,15.625,24.414,-142.578,38.574
1584599661.708,48.340,28.320,28.320,120.117,25.879
1584599661.712,51.758,30.762,30.273,219.238,15.625
1584599661.716,3.418,16.602,24.414,-20.508,-25.391
1584599661.720,-15.625,13.184,23.438,-166.504,41.016
1584599661.724,37.109,23.438,28.320,48.828,9.766
1584599661.727,70.801,28.809,26.855,229.004,-21.484
1584599661.731,36.621,21.973,20.020,58.105,20.020
1584599661.735,-10.254,10.254,18.555,-171.875,57.129
1584599661.739,17.578,21.973,27.344,-41.504,34.668
1584599661.743,70.312,34.668,33.691,212.402,32.715
1584599661.747,59.082,29.785,30.273,131.836,49.805
1584599661.751,-3.418,19.531,20.996,-139.648,45.898
1584599661.755,0.488,21.484,25.391,-108.398,44.922
1584599661.759,71.289,36.621,33.691,169.922,62.012
1584599661.763,69.824,35.156,29.297,188.965,56.641
1584599661.767,3.418,20.508,25.391,-75.684,35.156
1584599661.770,-11.230,18.066,28.809,-151.855,8.301
1584599661.774,36.621,29.785,32.715,100.586,-0.977
1584599661.778,49.316,27.832,34.668,225.098,37.109
1584599661.782,5.371,18.066,29.297,2.441,19.531
1584599661.786,-15.137,18.555,25.879,-170.410,-14.160
1584599661.790,34.180,28.809,33.203,30.762,-19.043
1584599661.794,70.312,35.645,38.086,236.816,-8.789
1584599661.798,34.180,25.879,32.227,82.520,10.254
1584599661.802,-8.789,19.043,24.414,-156.250,17.578
1584599661.806,17.090,25.879,30.762,-45.898,42.969
1584599661.810,68.359,34.668,40.039,210.938,55.176
1584599661.813,57.617,31.738,41.992,155.762,47.363
1584599661.817,2.930,20.996,34.668,-118.652,27.344
1584599661.821,9.277,23.438,29.297,-122.070,21.484
1584599661.825,52.734,33.691,34.180,148.926,68.848
1584599661.829,47.363,32.715,30.762,194.336,79.102
1584599661.833,0.000,20.508,20.508,-62.500,42.969
1584599661.837,-11.719,16.113,19.531,-163.086,23.438
1584599661.841,55.664,25.879,26.855,84.473,-1.465
1584599661.845,76.172,29.785,31.250,226.074,-6.348
1584599661.849,16.602,22.949,26.855,19.043,1.953
1584599661.852,-15.137,16.113,19.531,-176.758,22.461
1584599661.856,29.297,26.367,20.508,-6.836,42.969
1584599661.860,73.242,35.645,26.855,216.309,35.156
1584599661.864,37.109,27.344,23.926,92.285,11.230
1584599661.868,-12.207,18.066,19.043,-165.527,18.066
1584599661.872,7.812,25.391,25.879,-84.961,26.367
1584599661.876,55.664,33.203,33.691,185.059,39.062
1584599661.880,51.758,23.438,33.691,159.180,6.836
1584599661.884,8.789,11.230,27.832,-110.352,16.113
1584599661.888,-0.488,15.625,26.855,-134.277,30.273
1584599661.892,38.086,32.715,30.273,134.766,31.738
1584599661.895,57.617,33.203,30.273,200.195,45.898
1584599661.899,12.207,19.531,23.438,-47.363,5.371
1584599661.903,-24.902,16.602,21.973,-178.711,10.254
1584599661.907,7.324,27.832,30.273,47.852,53.223
1584599661.911,30.762,28.320,32.227,211.426,16.113
1584599661.915,-4.883,15.137,26.855,17.090,-2.441
1584599661.919,-36.621,13.184,23.438,-197.266,29.297
1584599661.923,4.883,27.344,27.832,-42.969,12.695
1584599661.927,44.922,35.645,32.227,192.871,8.301
1584599661.931,24.414,29.785,25.879,90.332,17.578
1584599661.935,-20.508,22.461,20.996,-173.828,25.391
1584599661.938,-3.418,25.391,24.414,-116.699,23.926
1584599661.942,55.176,34.180,30.273,158.691,12.695
1584599661.946,40.039,31.738,31.738,153.809,52.246
1584599661.950,-29.785,24.902,25.391,-117.188,27.344
1584599661.954,-33.203,23.438,26.855,-170.898,40.039
1584599661.958,31.738,28.320,36.133,98.145,66.406
1584599661.962,46.387,30.273,33.691,190.918,0.488
1584599661.966,3.906,25.879,28.809,-44.434,9.277
1584599661.970,-17.578,22.949,29.297,-187.500,-25.391
1584599661.974,24.902,31.738,36.621,29.785,22.949
1584599661.977,57.129,37.109,37.598,218.262,45.410
1584599661.981,10.742,27.344,28.809,48.828,-38.086
1584599661.985,-41.992,17.578,24.414,-184.082,-50.293
1584599661.989,-2.930,20.508,31.738,-54.199,-29.785
1584599661.993,57.617,26.367,40.039,199.219,13.672
1584599661.997,37.598,23.438,35.645,119.141,51.758
1584599662.001,-12.695,18.066,25.391,-152.344,87.402
1584599662.005,1.465,22.461,27.344,-125.000,18.555
1584599662.009,47.363,30.762,37.109,156.738,-2.930
1584599662.013,47.363,29.297,38.086,187.012,12.695
1584599662.017,3.906,18.066,31.738,-78.125,-10.742
1584599662.020,-4.883,20.020,25.879,-161.621,-21.973
1584599662.024,52.734,38.574,29.785,94.238,-18.066
1584599662.028,69.336,43.945,37.109,227.051,53.711
1584599662.032,20.508,28.320,29.785,5.859,62.012
1584599662.036,-16.602,20.508,20.996,-176.270,56.641
1584599662.040,23.926,30.762,27.344,21.484,89.355
1584599662.044,66.895,37.109,29.297,227.051,59.570
1584599662.048,33.203,29.785,24.902,76.172,22.949
1584599662.052,-17.090,21.973,21.973,-170.898,42.480
1584599662.056,15.137,31.738,26.855,-66.895,28.809
1584599662.060,67.871,45.410,29.785,195.801,19.531
1584599662.063,47.363,37.598,25.391,138.184,21.973
1584599662.067,-3.906,26.367,25.879,-134.766,51.758
1584599662.071,-3.418,31.250,28.809,-130.371,59.082
1584599662.075,44.434,39.062,34.668,145.020,37.598
1584599662.079,49.805,33.691,34.180,192.383,20.996
1584599662.083,1.465,23.438,25.879,-68.359,-20.020
1584599662.087,-14.648,26.367,23.926,-174.316,47.363
1584599662.091,31.738,32.715,28.320,66.895,46.387
1584599662.095,61.035,32.715,31.738,212.402,-30.762
1584599662.099,29.785,25.391,26.367,12.695,1.953
1584599662.102,-6.348,19.531,21.484,-180.176,-5.371
1584599662.106,18.066,27.832,28.320,0.977,-12.695
1584599662.110,55.176,31.738,33.203,228.516,-2.441
1584599662.114,30.273,25.391,29.297,99.121,-7.324
1584599662.118,-15.137,19.531,22.949,-159.668,19.531
1584599662.122,13.184,27.344,25.391,-81.055,9.766
1584599662.126,54.688,37.598,31.738,187.500,25.879
1584599662.130,29.785,31.738,30.762,153.809,31.738
1584599662.134,-19.043,21.973,22.949,-117.188,19.043
1584599662.138,-11.719,20.996,22.949,-143.066,16.113
1584599662.142,41.504,28.809,33.203,132.812,24.414
1584599662.145,58.105,30.273,33.203,209.473,26.367
1584599662.149,7.324,20.996,24.414,-50.781,36.133
1584599662.153,-17.090,21.484,21.973,-188.477,58.594
1584599662.157,21.973,31.738,30.762,38.086,38.574
1584599662.161,34.180,31.738,36.621,204.590,14.648
1584599662.165,-1.465,20.508,30.273,21.973,31.738
1584599662.169,-31.250,14.160,27.832,-195.312,88.867
1584599662.173,9.277,23.926,33.691,-45.410,22.949
1584599662.177,54.688,32.715,34.668,194.824,-18.066
1584599662.181,29.297,28.809,31.250,93.262,-4.395
1584599662.185,-22.461,21.484,31.738,-172.363,-20.020
1584599662.188,-19.043,22.949,37.109,-117.188,53.223
1584599662.192,35.156,29.785,41.016,160.156,116.211
1584599662.196,30.762,28.809,38.086,155.762,53.711
1584599662.200,-34.668,17.578,31.250,-123.047,-7.812
1584599662.204,-40.527,20.508,29.785,-186.523,3.418
1584599662.208,20.996,29.785,36.621,80.566,49.316
1584599662.212,32.227,30.273,38.086,190.430,84.473
1584599662.216,-22.949,20.508,35.156,-37.598,31.738
1584599662.220,-51.270,12.207,34.180,-200.684,-23.438
1584599662.224,-4.883,20.996,40.039,4.883,27.344
1584599662.227,24.414,23.926,45.898,190.918,0.977
1584599662.231,-20.020,18.555,41.016,23.926,14.160
1584599662.235,-58.105,16.113,32.227,-207.520,46.875
1584599662.239,-14.648,25.879,38.574,-80.566,53.223
1584599662.243,28.809,30.762,45.410,168.945,24.902
1584599662.247,-3.418,21.484,40.527,84.473,-28.809
1584599662.251,-58.105,14.160,37.109,-177.246,-25.391
1584599662.255,-41.992,21.484,39.551,-145.020,-21.484
1584599662.259,25.879,35.645,42.480,131.836,25.391
1584599662.263,21.973,31.738,42.480,164.062,7.812
1584599662.267,-37.598,17.090,34.180,-104.492,-27.344
1584599662.270,-44.922,17.090,29.785,-186.523,0.488
1584599662.274,15.625,28.320,38.574,72.266,8.301
1584599662.278,40.039,31.250,43.457,200.195,16.602
1584599662.282,4.883,21.484,38.574,-6.836,30.273
1584599662.286,-16.113,18.555,32.227,-177.734,15.625
1584599662.290,27.832,29.297,36.621,7.324,-2.930
1584599662.294,55.664,35.156,39.551,208.984,-47.363
1584599662.298,13.672,26.855,33.203,71.777,-41.016
1584599662.302,-29.297,20.020,30.273,-160.156,52.246
1584599662.306,1.953,27.344,34.668,-53.711,87.891
1584599662.310,62.500,38.086,40.039,212.402,39.062
1584599662.313,55.664,36.133,39.551,165.039,65.430
1584599662.317,7.324,26.367,29.297,-112.305,12.207
1584599662.321,10.742,28.809,25.391,-118.164,15.625
1584599662.325,65.430,40.527,33.203,163.086,94.727
1584599662.329,70.801,39.551,32.715,217.773,35.156
1584599662.333,15.137,29.297,24.414,-40.039,-11.230
1584599662.337,-0.977,27.344,24.414,-152.832,5.371
1584599662.341,59.570,40.527,27.344,90.332,8.301
1584599662.345,91.309,43.945,27.832,244.629,18.555
1584599662.349,39.062,27.832,21.484,40.039,8.789
1584599662.352,0.977,18.555,19.531,-156.738,10.254
1584599662.356,45.898,32.715,25.879,20.508,29.297
1584599662.360,93.750,45.410,27.832,247.559,48.828
1584599662.364,54.688,35.156,22.461,121.582,109.863
1584599662.368,5.859,23.926,16.602,-142.578,38.086
1584599662.372,27.832,28.809,22.949,-67.383,-16.113
1584599662.376,73.242,38.086,27.832,208.984,81.543
1584599662.380,64.941,34.668,21.484,186.523,83.008
1584599662.384,5.859,24.414,17.090,-91.797,44.922
1584599662.388,3.418,26.367,20.508,-125.977,32.227
1584599662.392,62.012,35.645,24.902,146.973,24.414
1584599662.395,76.172,35.645,26.367,223.633,11.230
1584599662.399,36.133,27.344,21.484,-20.996,41.504
1584599662.403,18.066,23.926,18.555,-149.414,70.801
1584599662.407,67.383,31.738,24.414,79.590,61.523
1584599662.411,92.285,36.133,30.762,253.418,30.762
1584599662.415,41.992,27.344,26.855,66.895,0.977
1584599662.419,0.488,19.531,18.555,-153.809,-36.133
1584599662.423,29.297,26.367,21.973,-5.859,-46.875
1584599662.427,71.777,31.250,26.855,228.516,31.738
1584599662.431,42.480,23.438,18.555,128.906,32.227
1584599662.435,-4.883,18.066,12.207,-127.441,40.039
1584599662.438,24.902,26.855,17.578,-80.566,104.004
1584599662.442,84.473,36.133,23.926,185.059,79.590
1584599662.446,79.590,33.691,22.949,189.453,41.504
1584599662.450,22.949,26.367,16.113,-76.660,12.207
1584599662.454,17.578,27.344,15.137,-139.160,-38.574
1584599662.458,68.359,36.133,22.461,120.117,-28.809
1584599662.462,81.543,37.598,25.879,227.051,51.270
1584599662.466,32.715,26.367,18.555,-1.465,61.035
1584599662.470,7.324,21.973,14.648,-165.039,65.430
1584599662.474,52.246,34.668,20.996,40.039,99.121
1584599662.477,78.125,41.016,25.391,236.328,24.414
1584599662.481,31.738,31.250,20.020,77.637,53.223
1584599662.485,-12.695,20.020,15.137,-162.109,87.891
1584599662.489,25.879,26.367,22.461,-43.945,8.789
1584599662.493,71.777,34.668,26.367,211.426,7.812
1584599662.497,53.223,30.762,20.996,139.648,27.344
1584599662.501,8.789,21.973,16.113,-129.883,39.062
1584599662.505,13.672,24.414,19.043,-109.375,32.715
1584599662.509,62.012,38.574,27.832,165.527,-3.906
1584599662.513,63.477,35.645,27.344,193.359,34.668
1584599662.517,17.090,22.949,24.414,-67.871,38.086
1584599662.520,0.977,23.438,26.367,-156.250,37.109
1584599662.524,50.293,35.645,29.297,97.168,77.148
1584599662.528,63.965,36.133,27.832,225.098,89.355
1584599662.532,18.066,26.367,20.508,-3.418,80.078
1584599662.536,-3.906,23.438,19.531,-182.617,17.578
1584599662.540,31.250,34.180,21.973,13.672,-15.137
1584599662.544,68.848,39.551,23.438,220.703,-20.508
1584599662.548,39.062,28.320,21.484,79.590,11.719
1584599662.552,-9.277,19.531,20.020,-161.621,30.273
1584599662.556,31.250,29.297,26.367,-60.547,8.789
1584599662.560,80.566,37.109,32.715,205.078,34.668
1584599662.563,49.316,29.297,30.273,159.668,20.996
1584599662.567,-3.906,20.508,25.391,-114.258,-26.367
1584599662.571,-2.441,25.879,29.785,-122.559,-13.672
1584599662.575,49.805,31.738,37.109,148.926,12.695
1584599662.579,58.594,28.320,34.180,199.707,41.992
1584599662.583,11.230,20.508,23.438,-54.199,-4.395
1584599662.587,-0.488,20.508,24.902,-164.062,-51.270
1584599662.591,44.434,32.715,35.156,83.496,18.066
1584599662.595,51.758,34.668,36.133,234.863,57.129
1584599662.599,8.789,24.414,27.344,27.344,53.223
1584599662.602,-14.648,16.602,23.438,-175.781,-4.395
1584599662.606,35.645,24.414,31.250,-3.906,-7.324
1584599662.610,78.613,37.109,36.621,225.098,41.504
1584599662.614,45.410,31.250,32.227,111.328,3.418
1584599662.618,-4.395,18.555,25.879,-143.066,19.531
1584599662.622,18.066,26.855,32.715,-78.125,21.973
1584599662.626,64.941,39.062,38.086,195.801,23.438
1584599662.630,55.176,32.715,26.367,176.758,29.297
1584599662.634,4.883,23.926,17.578,-96.191,24.414
1584599662.638,14.160,29.297,22.949,-131.836,58.105
1584599662.642,70.312,39.062,30.273,133.789,58.594
1584599662.645,61.523,36.621,28.320,216.309,43.457
1584599662.649,1.953,28.809,21.973,-22.949,92.773
1584599662.653,-9.277,29.297,23.438,-161.133,37.109
1584599662.657,44.434,37.598,28.320,62.012,-24.902
1584599662.661,67.383,37.598,25.879,233.887,-19.043
1584599662.665,30.273,26.367,24.414,48.828,0.000
1584599662.669,-3.906,20.996,22.949,-174.316,33.203
1584599662.673,36.133,29.297,26.367,-22.461,40.527
1584599662.677,75.195,33.203,31.250,226.562,16.113
1584599662.681,44.922,29.297,29.297,128.418,35.156
1584599662.685,3.418,22.949,24.414,-136.230,14.160
1584599662.688,26.367,26.367,25.879,-94.238,26.367
1584599662.692,76.172,34.180,32.715,181.641,41.504
1584599662.696,62.500,29.785,32.227,192.871,-5.371
1584599662.700,3.418,20.020,26.855,-75.195,30.273
1584599662.704,-4.883,20.508,25.391,-139.160,36.621
1584599662.708,55.664,29.785,29.785,119.141,3.418
1584599662.712,72.754,31.738,30.762,221.680,3.418
1584599662.716,19.043,21.973,28.809,-7.812,47.363
1584599662.720,-8.789,17.090,28.320,-166.992,122.070
1584599662.724,39.551,27.832,32.715,42.480,84.473
1584599662.727,74.219,32.715,40.039,242.676,26.367
1584599662.731,33.203,21.973,39.062,81.055,13.672
1584599662.735,-11.719,15.625,32.227,-159.668,36.133
1584599662.739,21.973,23.926,33.691,-41.016,37.598
1584599662.743,72.754,32.227,37.598,214.844,23.926
1584599662.747,56.152,26.367,36.621,147.949,67.383
1584599662.751,-8.789,17.090,33.691,-121.094,40.039
1584599662.755,-9.766,18.555,30.762,-107.910,59.570
1584599662.759,53.223,25.391,35.645,164.062,72.754
1584599662.763,57.617,26.855,38.574,202.148,45.898
1584599662.767,-2.441,15.625,31.250,-59.082,38.574
1584599662.770,-10.742,16.602,26.855,-153.809,35.645
1584599662.774,51.270,29.785,34.180,94.727,24.414
1584599662.778,70.312,29.785,36.133,229.004,34.180
1584599662.782,21.484,17.090,25.391,11.719,10.742
1584599662.786,-9.766,11.230,20.508,-173.828,50.293
1584599662.790,22.949,22.461,27.832,14.160,36.133
1584599662.794,59.082,27.344,32.715,231.445,-17.578
1584599662.798,37.109,18.555,30.273,97.656,3.418
1584599662.802,-3.906,11.719,24.902,-154.297,-18.066
1584599662.806,22.461,20.508,23.926,-63.965,-26.367
1584599662.810,57.129,30.762,28.809,205.078,8.789
1584599662.813,32.227,23.926,27.344,162.598,52.734
1584599662.817,-8.789,17.090,20.020,-120.605,33.691
1584599662.821,6.348,22.461,24.414,-127.441,14.648
1584599662.825,54.688,31.738,33.691,156.738,41.992
1584599662.829,50.781,30.762,35.645,210.938,35.156
1584599662.833,-4.883,18.066,31.738,-41.992,24.414
1584599662.837,-10.254,17.090,29.297,-155.273,-6.348
1584599662.841,52.734,29.785,31.738,82.520,30.273
1584599662.845,77.637,34.180,34.668,237.793,58.594
1584599662.849,26.367,20.996,32.715,39.062,29.785
1584599662.852,-12.695,17.090,27.344,-164.062,14.648
1584599662.856,26.855,29.785,31.250,2.930,11.230
1584599662.860,70.801,35.156,37.598,231.445,44.922
1584599662.864,47.852,29.297,32.227,112.305,67.871
1584599662.868,1.953,19.531,24.902,-145.508,60.547
1584599662.872,24.902,23.926,26.855,-78.613,12.207
1584599662.876,73.730,35.156,32.227,188.965,-8.789
1584599662.880,62.988,30.273,33.691,175.781,-23.438
1584599662.884,14.160,21.973,25.879,-89.844,-38.574
1584599662.888,15.625,27.344,28.320,-127.930,3.906
1584599662.892,60.059,35.645,41.016,145.996,76.660
1584599662.895,61.035,32.715,36.621,233.887,76.172
1584599662.899,7.324,20.508,23.926,-11.719,53.711
1584599662.903,-10.742,18.066,18.555,-157.227,-0.488
1584599662.907,48.828,27.832,22.949,55.176,-53.223
1584599662.911,78.125,32.715,24.414,230.469,-7.812
1584599662.915,38.574,23.926,21.973,60.547,-8.789
1584599662.919,0.488,15.625,18.066,-159.668,-37.109
1584599662.923,34.180,24.902,20.508,-20.020,2.441
1584599662.927,74.707,34.668,24.414,228.027,32.715
1584599662.931,46.387,26.367,21.484,139.648,12.207
1584599662.935,-7.812,17.090,19.043,-130.859,10.742
1584599662.938,6.348,23.438,20.020,-92.285,20.508
1584599662.942,67.383,34.668,24.414,187.012,-21.484
1584599662.946,67.383,35.645,27.344,200.195,31.738
1584599662.950,13.672,23.926,21.484,-72.754,53.223
1584599662.954,5.859,23.438,20.020,-145.508,5.859
1584599662.958,62.500,36.133,29.297,123.535,7.324
1584599662.962,74.219,37.598,31.738,242.676,73.730
1584599662.966,20.020,29.785,25.391,11.230,66.895
1584599662.970,-12.207,29.297,22.461,-156.738,2.441
1584599662.974,35.645,37.598,30.273,52.246,31.738
1584599662.977,80.078,39.062,31.738,243.164,79.102
1584599662.981,50.781,29.297,26.367,82.520,43.457
1584599662.985,5.371,21.484,20.996,-151.367,29.297
1584599662.989,31.738,30.273,23.926,-31.738,70.801
1584599662.993,78.613,36.133,31.250,219.727,28.320
1584599662.997,52.734,31.250,29.297,148.438,-23.926
1584599663.001,-7.812,24.902,22.949,-120.605,-17.578
1584599663.005,-0.977,27.344,25.391,-110.352,29.785
1584599663.009,60.547,39.062,33.691,168.457,7.812
1584599663.013,61.035,34.668,34.668,213.379,2.930
1584599663.017,5.371,21.484,26.367,-47.852,27.344
1584599663.020,-1.465,21.973,22.461,-144.531,31.250
1584599663.024,58.105,32.227,29.297,101.074,-10.742
1584599663.028,78.125,36.621,31.738,233.398,16.113
1584599663.032,32.227,29.297,27.344,20.508,23.438
1584599663.036,-0.488,23.438,28.320,-164.062,18.066
1584599663.040,41.016,30.273,34.180,17.090,43.457
1584599663.044,74.707,35.645,32.227,227.051,12.207
1584599663.048,30.273,26.855,26.855,96.191,14.648
1584599663.052,-16.113,19.043,26.367,-147.949,41.504
1584599663.056,14.160,28.320,32.227,-57.617,6.836
1584599663.060,70.312,40.527,38.086,204.102,-43.945
1584599663.063,59.570,33.203,33.691,162.109,-6.836
1584599663.067,-2.441,17.578,26.855,-110.352,46.387
1584599663.071,-7.324,18.555,26.855,-129.883,84.961
1584599663.075,46.875,30.273,33.691,139.648,61.035
1584599663.079,51.758,31.250,36.621,207.031,6.836
1584599663.083,1.953,20.020,27.832,-47.852,9.766
1584599663.087,-6.348,17.578,24.902,-173.828,41.992
1584599663.091,50.293,32.715,31.250,63.477,7.812
1584599663.095,72.754,38.086,27.832,223.633,32.227
1584599663.099,31.738,25.391,24.414,31.250,45.898
1584599663.102,-5.859,17.090,26.367,-174.316,-16.602
1584599663.106,22.949,24.902,30.762,-9.766,19.043
1584599663.110,64.453,31.250,32.715,225.098,47.363
1584599663.114,34.180,23.926,25.879,108.398,4.395
1584599663.118,-16.602,18.555,20.020,-149.414,5.371
1584599663.122,2.930,27.344,21.973,-81.055,36.133
1584599663.126,55.176,36.133,30.273,192.871,77.148
1584599663.130,54.199,29.297,29.785,176.270,40.039
1584599663.134,9.766,18.066,21.973,-102.051,2.930
1584599663.138,1.953,21.484,25.391,-143.555,32.715
1584599663.142,48.340,33.691,33.203,128.906,53.711
1584599663.145,56.152,30.762,34.180,214.355,27.832
1584599663.149,3.906,15.625,33.691,-27.344,-17.578
1584599663.153,-14.648,13.184,32.227,-170.410,13.184
1584599663.157,39.551,24.902,32.227,51.270,79.102
1584599663.161,71.289,31.738,33.203,232.422,55.176
1584599663.165,39.551,25.391,29.297,59.570,19.043
1584599663.169,-3.906,19.043,26.855,-159.668,26.855
1584599663.173,27.832,25.879,28.320,-20.508,26.855
1584599663.177,84.961,31.738,34.180,224.609,32.715
1584599663.181,60.059,27.344,33.203,136.230,15.625
1584599663.185,-1.465,22.461,24.902,-130.859,62.012
1584599663.188,8.301,25.879,27.344,-92.773,84.961
1584599663.192,63.965,33.203,32.715,172.363,12.207
1584599663.196,61.523,31.738,30.762,183.594,12.695
1584599663.200,10.254,22.461,22.461,-78.613,10.742
1584599663.204,10.254,25.391,20.020,-146.484,5.371
1584599663.208,62.988,34.180,28.809,115.234,51.270
1584599663.212,67.383,29.785,35.156,228.516,40.039
1584599663.216,19.043,18.066,28.809,-2.441,31.250
1584599663.220,2.441,18.066,21.484,-172.852,5.371
1584599663.224,47.363,28.809,26.855,26.367,19.531
1584599663.227,72.754,31.738,33.691,227.539,33.691
1584599663.231,32.715,21.973,25.391,73.242,43.457
1584599663.235,-6.348,15.625,16.113,-170.410,17.578
1584599663.239,22.949,27.344,25.879,-54.199,-12.695
1584599663.243,57.129,36.133,33.203,212.891,20.020
1584599663.247,31.738,29.785,26.367,151.367,23.926
1584599663.251,-16.113,20.508,20.996,-123.047,42.480
1584599663.255,-1.465,23.438,24.902,-113.770,62.988
1584599663.259,58.105,35.645,27.832,162.598,36.621
1584599663.263,58.594,32.227,25.391,201.172,60.547
1584599663.267,4.395,21.973,22.461,-59.570,82.031
1584599663.270,-7.812,24.414,24.902,-156.738,2.441
1584599663.274,52.734,37.109,34.180,92.773,-2.441
1584599663.278,74.707,38.574,33.203,233.398,40.039
1584599663.282,24.902,27.344,23.926,15.137,7.812
1584599663.286,-6.348,22.461,20.996,-175.781,-19.531
1584599663.290,39.551,32.715,28.809,11.719,-37.109
1584599663.294,78.613,38.086,34.668,230.469,-3.906
1584599663.298,32.715,29.785,30.762,98.633,36.621
1584599663.302,-15.625,24.902,29.785,-149.414,24.414
1584599663.306,20.508,28.320,37.109,-61.523,38.086
1584599663.310,65.430,35.156,37.598,201.172,21.973
1584599663.313,50.781,33.203,32.227,166.016,1.953
1584599663.317,-0.488,22.949,29.297,-105.469,26.367
1584599663.321,6.836,27.832,27.832,-125.000,9.277
1584599663.325,64.453,39.551,30.762,143.555,11.719
1584599663.329,58.594,40.039,30.762,211.426,49.316
1584599663.333,7.812,29.785,25.879,-36.621,14.648
1584599663.337,-0.488,28.320,26.367,-161.133,0.977
1584599663.341,51.758,38.086,33.203,75.195,53.711
1584599663.345,69.824,35.156,37.598,237.793,65.918
1584599663.349,23.438,23.926,34.180,44.434,74.707
1584599663.352,0.000,15.137,31.250,-168.457,25.391
1584599663.356,31.250,18.555,33.203,-11.230,31.738
1584599663.360,67.871,30.762,37.109,222.656,0.977
1584599663.364,46.387,27.832,33.691,115.234,2.441
1584599663.368,-4.883,17.090,24.414,-151.855,6.836
1584599663.372,17.578,25.391,26.855,-88.379,-7.812
1584599663.376,73.242,39.062,36.133,187.988,36.621
1584599663.380,59.082,36.621,34.180,177.246,61.035
1584599663.384,0.977,26.367,26.367,-95.703,45.898
1584599663.388,-2.441,28.320,29.297,-145.020,6.348
1584599663.392,50.293,37.598,38.086,128.418,64.453
1584599663.395,56.152,33.203,33.691,219.727,72.266
1584599663.399,13.672,25.391,26.367,-22.949,60.059
1584599663.403,-1.465,24.902,24.902,-169.434,36.621
1584599663.407,43.457,34.180,33.203,49.316,-12.207
1584599663.411,76.172,40.039,39.062,235.840,34.668
1584599663.415,30.273,29.297,33.691,60.547,29.785
1584599663.419,-14.160,23.926,29.297,-169.434,-8.301
1584599663.423,20.508,32.715,36.133,-31.250,19.531
1584599663.427,63.965,40.527,40.527,218.750,4.883
1584599663.431,45.898,34.668,31.250,132.324,29.785
1584599663.435,-7.812,23.438,23.438,-134.277,25.391
1584599663.438,10.254,29.297,32.715,-98.145,20.996
1584599663.442,69.824,38.086,38.574,176.758,48.828
1584599663.446,62.988,32.715,34.668,187.500,21.484
1584599663.450,9.277,21.484,26.855,-79.590,20.020
1584599663.454,-0.977,24.414,23.438,-154.297,-34.668
1584599663.458,45.410,33.691,32.227,103.516,-40.039
1584599663.462,59.082,31.738,36.133,221.191,8.301
1584599663.466,18.066,22.949,31.738,-6.348,-3.906
1584599663.470,-9.277,20.996,25.391,-171.875,38.574
1584599663.474,40.039,33.203,29.297,28.809,76.172
1584599663.477,79.590,40.039,34.180,235.352,74.707
1584599663.481,32.715,30.273,28.809,81.543,52.246
1584599663.485,-17.090,21.484,24.902,-166.016,52.246
1584599663.489,19.531,29.297,33.203,-57.617,45.898
1584599663.493,65.918,37.598,39.062,201.172,50.781
1584599663.497,41.992,29.785,36.621,144.531,41.504
1584599663.501,-6.836,19.043,31.738,-126.465,44.922
1584599663.505,5.859,24.414,32.715,-125.488,20.508
1584599663.509,52.246,36.133,40.527,153.320,87.891
1584599663.513,44.922,34.180,39.551,197.754,129.395
1584599663.517,0.488,21.973,29.785,-64.941,71.289
1584599663.520,-15.137,20.996,26.855,-169.922,50.781
1584599663.524,32.227,32.227,34.668,71.777,20.508
1584599663.528,61.035,36.133,40.039,219.727,35.156
1584599663.532,20.508,25.391,33.691,12.695,-8.301
1584599663.536,-13.184,17.578,29.297,-184.082,-24.902
1584599663.540,30.273,27.344,34.180,-0.977,18.555
1584599663.544,67.383,31.738,38.574,218.750,18.066
1584599663.548,29.297,21.973,32.715,84.961,40.527
1584599663.552,-21.484,15.625,24.414,-162.109,41.504
1584599663.556,9.766,24.902,28.320,-77.637,-0.488
1584599663.560,67.383,37.598,36.621,187.500,-1.465
1584599663.563,48.828,32.227,34.180,158.691,26.367
1584599663.567,-6.348,19.531,31.738,-116.211,-4.395
1584599663.571,-2.930,25.391,30.762,-137.207,-35.645
1584599663.575,50.293,36.621,36.621,138.672,-36.621
1584599663.579,56.152,35.156,37.598,209.961,-8.301
1584599663.583,5.859,24.414,28.320,-40.039,41.504
1584599663.587,-2.441,23.438,25.391,-166.016,62.500
1584599663.591,52.246,34.668,33.691,70.801,50.293
1584599663.595,77.148,38.574,36.621,232.422,48.828
1584599663.599,39.062,27.832,28.809,37.109,47.852
1584599663.602,-8.789,20.996,27.832,-168.945,52.734
1584599663.606,14.648,29.785,32.715,-7.324,71.777
1584599663.610,56.641,34.180,36.133,222.656,65.918
1584599663.614,31.738,27.832,29.297,108.887,46.387
1584599663.618,-12.695,20.508,20.996,-148.438,3.906
1584599663.622,15.625,28.809,23.926,-86.914,-14.648
1584599663.626,72.266,41.992,28.809,183.105,41.504
1584599663.630,56.641,38.086,28.320,176.270,42.480
1584599663.634,-3.906,22.949,22.949,-89.844,2.441
1584599663.638,-3.906,22.461,28.320,-134.766,-12.695
1584599663.642,46.875,34.668,38.086,129.883,-25.879
1584599663.645,57.617,33.691,38.574,216.309,-27.832
1584599663.649,8.789,23.926,31.738,-22.949,-51.270
1584599663.653,-7.324,19.043,28.809,-168.457,-25.391
1584599663.657,46.387,30.273,33.691,44.922,39.551
1584599663.661,69.824,41.992,34.668,230.957,81.055
1584599663.665,24.414,27.344,30.273,61.523,55.664
1584599663.669,-14.648,18.066,26.367,-165.039,12.207
1584599663.673,20.996,30.762,32.715,-27.832,17.090
1584599663.677,67.383,37.598,38.086,225.098,19.043
1584599663.681,46.387,27.832,30.762,135.742,36.133
1584599663.685,-4.883,17.090,23.926,-135.254,27.832
1584599663.688,11.719,21.973,27.832,-101.562,-10.742
1584599663.692,66.406,31.738,34.180,171.875,30.273
1584599663.696,53.711,29.297,35.156,194.824,40.039
1584599663.700,-11.230,18.555,30.762,-74.707,30.273
1584599663.704,-18.066,19.043,25.879,-157.715,47.852
1584599663.708,41.016,33.203,31.738,107.910,27.832
1584599663.712,60.547,33.691,38.086,232.910,72.266
1584599663.716,12.695,18.555,32.715,0.977,54.688
1584599663.720,-13.672,15.137,27.344,-176.270,26.855
1584599663.724,36.133,27.344,33.203,20.020,-0.488
1584599663.727,70.801,34.668,36.621,226.074,-6.348
1584599663.731,28.809,27.832,31.250,80.078,68.359
1584599663.735,-18.555,18.555,26.855,-158.203,28.320
1584599663.739,24.902,24.414,32.715,-46.875,36.621
1584599663.743,74.219,34.180,39.551,210.938,41.992
1584599663.747,35.156,30.762,36.133,146.484,-8.301
1584599663.751,-17.578,24.414,29.785,-125.977,34.668
1584599663.755,-0.488,26.855,32.715,-116.699,60.059
1584599663.759,49.805,32.227,38.086,156.250,26.855
1584599663.763,48.828,30.762,32.715,196.777,-29.297
1584599663.767,0.488,20.508,26.855,-61.523,-0.488
1584599663.770,-4.883,18.066,26.855,-164.551,21.973
1584599663.774,52.246,29.785,32.715,81.543,-16.113
1584599663.778,72.266,32.715,34.180,224.609,-19.531
1584599663.782,20.508,20.508,29.297,18.066,11.230
1584599663.786,-13.672,15.137,28.809,-168.457,17.090
1584599663.790,23.926,29.297,35.645,7.324,13.672
1584599663.794,69.336,38.086,38.086,222.168,51.758
1584599663.798,44.434,26.367,30.762,95.215,27.344
1584599663.802,-4.395,16.113,21.973,-154.785,8.301
1584599663.806,10.254,22.949,25.391,-68.359,14.648
1584599663.810,56.152,29.297,32.715,197.266,30.273
1584599663.813,50.293,24.902,31.250,166.016,29.297
1584599663.817,2.441,21.973,24.902,-103.516,23.926
1584599663.821,2.930,24.902,25.879,-132.324,54.199
1584599663.825,50.293,34.180,33.203,141.602,63.965
1584599663.829,59.570,35.156,29.785,215.820,57.129
1584599663.833,8.789,26.855,20.508,-35.645,63.477
1584599663.837,-10.254,26.367,21.484,-166.016,72.266
1584599663.841,49.316,38.086,32.715,66.895,32.715
1584599663.845,73.242,34.668,36.133,232.422,-19.043
1584599663.849,20.508,20.508,32.227,42.969,-3.906
1584599663.852,-22.949,18.066,29.297,-167.969,23.926
1584599663.856,14.160,29.297,30.762,-14.160,77.148
1584599663.860,63.477,35.645,34.668,220.703,67.871
1584599663.864,45.898,27.832,31.250,109.863,50.293
1584599663.868,-2.930,21.973,23.926,-157.227,82.031
1584599663.872,17.578,30.762,24.414,-101.562,50.781
1584599663.876,76.172,39.551,31.250,175.293,4.883
1584599663.880,56.152,33.203,32.715,172.363,-0.488
1584599663.884,-11.230,22.461,28.320,-104.492,10.254
1584599663.888,-12.207,27.344,30.762,-155.273,-4.395
1584599663.892,46.875,38.086,38.574,114.258,-26.367
1584599663.895,60.547,36.133,33.691,207.520,62.500
1584599663.899,16.113,27.832,27.344,-26.367,65.430
1584599663.903,-8.789,26.367,29.785,-170.410,9.766
1584599663.907,32.227,34.180,33.203,43.457,22.461
1584599663.911,66.406,38.574,35.156,225.098,41.504
1584599663.915,28.320,30.762,32.227,50.293,25.391
1584599663.919,-18.555,23.438,31.738,-177.734,17.090
1584599663.923,6.836,29.297,35.645,-41.992,30.762
1584599663.927,56.152,34.668,34.668,206.055,12.207
1584599663.931,42.969,29.785,30.762,120.605,29.297
1584599663.935,-22.949,20.996,27.344,-154.785,6.836
1584599663.938,-12.207,24.902,32.227,-121.094,41.016
1584599663.942,54.688,35.156,39.062,155.273,35.645
1584599663.946,52.246,32.715,38.086,167.969,3.906
1584599663.950,0.488,20.020,35.156,-95.215,55.664
1584599663.954,-17.578,21.484,37.109,-168.945,48.828
1584599663.958,20.508,31.250,41.504,82.031,41.992
1584599663.962,41.016,32.715,42.480,204.590,62.012
1584599663.966,5.371,24.902,38.086,-11.719,24.414
1584599663.970,-20.508,17.578,33.691,-189.941,36.621
1584599663.974,20.996,26.367,38.574,-2.441,79.102
1584599663.977,46.875,36.133,41.016,198.730,61.035
1584599663.981,-1.953,27.832,36.621,48.828,62.500
1584599663.985,-49.316,16.602,34.668,-198.730,71.289
1584599663.989,-17.578,23.438,40.039,-92.773,6.836
1584599663.993,34.180,32.715,46.387,175.293,-1.465
1584599663.997,18.066,25.879,40.527,121.094,65.430
1584599664.001,-38.574,16.602,30.762,-159.668,2.930
1584599664.005,-38.086,22.461,35.156,-161.133,20.996
1584599664.009,7.812,30.762,41.992,116.211,22.461
1584599664.013,11.719,26.855,40.039,166.016,-0.977
1584599664.017,-37.109,17.578,34.668,-91.797,14.160
1584599664.020,-46.387,16.602,37.598,-196.777,1.465
1584599664.024,10.254,26.367,45.410,52.734,20.508
1584599664.028,37.598,30.762,44.922,189.941,24.902
1584599664.032,-8.789,22.949,35.645,-25.879,4.883
1584599664.036,-41.504,21.973,30.762,-210.938,-2.930
1584599664.040,5.859,30.273,38.574,-29.297,6.348
1584599664.044,45.898,32.227,43.945,193.848,7.324
1584599664.048,10.742,27.344,38.574,70.801,-10.742
1584599664.052,-38.574,21.973,31.250,-176.758,32.715
1584599664.056,-12.207,27.832,33.691,-89.355,43.945
1584599664.060,41.504,38.086,37.598,174.805,25.391
1584599664.063,30.273,33.691,31.738,142.090,3.418
1584599664.067,-21.484,22.949,20.996,-127.930,18.555
1584599664.071,-20.996,25.879,22.461,-152.832,68.848
1584599664.075,38.086,35.156,29.297,111.816,68.359
1584599664.079,48.828,37.109,31.738,184.570,57.617
1584599664.083,-0.977,29.785,28.320,-54.199,2.441
1584599664.087,-20.020,26.367,20.020,-185.547,-18.555
1584599664.091,36.621,34.668,24.414,46.387,30.762
1584599664.095,67.871,38.086,27.832,218.750,43.457
1584599664.099,19.531,28.809,19.043,28.809,54.199
1584599664.102,-25.391,21.484,16.113,-185.059,19.531
1584599664.106,7.324,27.344,22.461,-30.762,17.578
1584599664.110,55.664,36.133,28.320,205.566,51.270
1584599664.114,31.250,31.250,28.320,106.445,-15.625
1584599664.118,-20.996,21.484,23.438,-157.715,-7.812
1584599664.122,0.488,27.832,27.344,-104.492,54.199
1584599664.126,61.035,38.574,36.621,173.828,13.184
1584599664.130,50.293,32.227,34.180,178.223,31.250
1584599664.134,1.953,23.926,30.762,-88.379,52.246
1584599664.138,0.488,27.344,31.250,-148.438,42.969
1584599664.142,44.434,36.621,32.227,120.605,80.566
1584599664.145,51.758,30.273,34.180,221.680,6.348
1584599664.149,6.836,17.578,24.902,-17.090,-19.043
1584599664.153,-10.254,16.602,22.949,-165.527,30.273
1584599664.157,34.668,29.785,31.738,47.852,46.387
1584599664.161,64.941,35.645,36.621,230.469,69.336
1584599664.165,31.738,26.855,31.738,62.012,51.758
1584599664.169,-9.766,21.484,22.461,-170.898,-16.602
1584599664.173,20.020,28.320,22.949,-44.434,-20.996
1584599664.177,68.848,32.715,29.297,207.031,-18.555
1584599664.181,44.922,25.879,26.367,129.883,-14.160
1584599664.185,-7.812,18.555,20.508,-135.742,-5.371
1584599664.188,8.789,22.949,25.879,-101.074,18.555
1584599664.192,60.059,31.738,31.250,177.734,18.066
1584599664.196,55.176,30.762,25.391,192.871,-27.344
1584599664.200,13.672,26.367,20.020,-75.684,0.977
1584599664.204,8.789,26.855,22.949,-152.344,12.695
1584599664.208,53.711,35.156,25.391,97.168,33.203
1584599664.212,60.059,36.133,26.855,217.773,90.820
1584599664.216,6.836,26.855,23.926,-2.441,115.723
1584599664.220,-14.648,20.508,21.484,-175.781,91.797
1584599664.224,37.109,26.855,30.273,17.578,-21.973
1584599664.227,71.777,34.180,35.156,221.191,-30.762
1584599664.231,30.762,25.879,32.715,76.172,36.621
1584599664.235,-22.461,14.648,26.367,-167.480,-9.277
1584599664.239,4.883,22.461,28.809,-64.941,1.953
1584599664.243,60.547,37.598,31.738,199.707,19.043
1584599664.247,47.363,35.156,25.879,148.926,28.809
1584599664.251,-5.859,20.020,20.996,-123.535,20.020
1584599664.255,8.789,22.461,24.414,-123.047,-22.949
1584599664.259,69.336,38.086,32.715,150.391,-36.621
1584599664.263,67.383,39.062,33.203,200.195,16.113
1584599664.267,0.488,28.809,26.855,-49.805,37.598
1584599664.270,-14.648,23.438,27.832,-155.762,-13.672
1584599664.274,42.969,33.691,32.715,75.195,-17.578
1584599664.278,64.941,38.574,29.785,222.656,44.922
1584599664.282,24.414,28.809,23.438,25.879,25.879
1584599664.286,-9.766,26.367,22.461,-168.945,20.508
1584599664.290,31.250,38.086,27.344,3.906,85.938
1584599664.294,69.336,43.945,27.344,227.051,63.477
1584599664.298,34.668,32.227,22.461,100.098,66.895
1584599664.302,-16.602,19.043,16.602,-165.527,82.520
1584599664.306,10.742,27.344,19.531,-89.844,-6.348
1584599664.310,62.500,38.574,28.809,187.988,-32.715
1584599664.313,45.898,29.297,29.785,161.621,10.742
1584599664.317,-5.859,18.066,22.949,-119.629,1.953
1584599664.321,-0.977,24.414,24.414,-143.555,11.230
1584599664.325,55.176,37.598,33.203,141.602,59.082
1584599664.329,53.223,32.715,34.180,216.309,99.121
1584599664.333,1.953,20.996,29.297,-34.668,110.840
1584599664.337,-6.348,25.391,22.949,-169.922,26.367
1584599664.341,50.781,36.621,28.320,58.594,-6.836
1584599664.345,68.848,36.133,35.645,236.816,50.293
1584599664.349,24.414,24.414,34.180,57.617,21.973
1584599664.352,-3.906,23.438,29.297,-160.156,-1.953
1584599664.356,21.973,35.645,25.391,-30.273,-12.207
1584599664.360,65.430,36.621,28.320,197.754,-31.738
1584599664.364,45.898,30.273,30.273,108.887,11.719
1584599664.368,-7.812,25.879,26.367,-154.297,10.742
1584599664.372,0.977,29.297,22.461,-108.398,-22.461
1584599664.376,39.551,35.645,28.320,167.480,0.977
1584599664.380,28.320,30.762,31.250,167.969,20.996
1584599664.384,-14.648,19.531,23.926,-101.074,40.039
1584599664.388,-13.184,20.508,21.484,-161.133,49.805
1584599664.392,40.039,32.715,30.762,101.562,17.090
1584599664.395,45.410,36.133,29.297,203.613,20.508
1584599664.399,-10.254,28.320,20.996,-32.715,15.625
1584599664.403,-34.180,23.438,21.973,-184.082,10.742
1584599664.407,20.020,34.668,28.809,24.414,23.926
1584599664.411,60.059,45.410,33.203,210.938,0.488
1584599664.415,29.297,35.156,23.926,50.781,4.395
1584599664.419,-8.789,24.414,18.555,-185.059,50.781
1584599664.423,14.160,36.133,26.855,-56.641,63.477
1584599664.427,48.828,45.410,29.297,203.613,58.105
1584599664.431,29.785,38.574,23.438,123.535,66.895
1584599664.435,-15.625,27.832,23.438,-145.020,35.156
1584599664.438,1.953,30.762,28.320,-121.582,34.180
1584599664.442,56.152,45.410,28.809,150.391,26.367
1584599664.446,44.434,44.922,25.879,171.387,10.254
1584599664.450,-10.254,28.320,24.414,-99.609,-22.461
1584599664.454,-8.789,26.855,24.902,-181.152,-21.484
1584599664.458,46.875,40.039,28.809,80.078,34.180
1584599664.462,55.176,40.039,30.762,210.449,28.809
1584599664.466,1.953,28.809,24.414,-5.859,7.324
1584599664.470,-23.926,25.391,22.949,-178.223,32.715
1584599664.474,29.297,35.645,29.785,15.137,31.738
1584599664.477,69.336,40.527,31.738,222.656,17.578
1584599664.481,36.133,31.738,28.809,81.055,62.012
1584599664.485,-16.113,20.508,28.809,-167.480,59.570
1584599664.489,10.254,26.855,33.203,-63.965,37.109
1584599664.493,64.941,37.109,35.156,201.660,15.625
1584599664.497,53.223,31.250,36.133,147.461,-19.531
1584599664.501,0.000,21.973,37.109,-121.094,25.391
1584599664.505,-0.977,21.973,34.668,-119.629,33.203
1584599664.509,50.781,33.203,36.133,151.367,40.527
1584599664.513,65.430,35.645,37.598,202.637,42.480
1584599664.517,19.531,29.785,32.715,-49.805,36.621
1584599664.520,-0.488,30.273,27.832,-158.691,56.152
1584599664.524,51.758,36.133,31.738,79.102,-6.836
1584599664.528,64.453,36.133,34.180,231.934,-8.301
1584599664.532,12.695,24.902,30.273,29.785,31.738
1584599664.536,-12.695,19.531,29.297,-171.387,37.598
1584599664.540,40.527,28.320,31.738,-5.371,75.195
1584599664.544,76.660,32.715,32.715,214.355,80.078
1584599664.548,29.297,23.926,28.809,98.633,80.078
1584599664.552,-23.926,15.625,24.902,-157.227,22.949
1584599664.556,9.277,21.484,29.297,-81.055,41.504
1584599664.560,63.965,31.250,33.203,189.941,50.293
1584599664.563,39.062,30.273,28.809,160.156,45.410
1584599664.567,-18.066,21.973,23.926,-112.305,28.809
1584599664.571,-4.395,23.438,28.809,-139.160,0.977
1584599664.575,56.641,34.668,35.645,126.953,21.973
1584599664.579,67.383,35.156,30.762,208.008,35.645
1584599664.583,19.531,23.438,21.973,-34.180,4.883
1584599664.587,-12.695,20.020,20.508,-172.852,-12.207
1584599664.591,36.621,36.621,31.250,56.152,0.977
1584599664.595,72.266,41.016,33.203,229.492,-13.672
1584599664.599,29.785,30.273,23.438,47.363,33.203
1584599664.602,-20.508,20.508,25.879,-174.805,73.242
1584599664.606,11.230,26.855,38.086,-28.809,31.250
1584599664.610,64.453,36.621,41.504,217.285,36.133
1584599664.614,41.016,28.809,33.203,114.746,70.312
1584599664.618,-10.254,21.484,27.832,-149.414,64.453
1584599664.622,0.000,29.785,30.273,-102.051,78.613
1584599664.626,49.805,37.598,35.156,168.945,43.457
1584599664.630,50.781,32.227,34.180,176.270,51.270
1584599664.634,3.906,19.531,27.344,-87.891,78.613
1584599664.638,-0.488,19.531,27.832,-146.484,63.965
1584599664.642,53.223,28.809,35.645,117.676,44.434
1584599664.645,58.594,26.367,38.574,217.285,-16.602
1584599664.649,13.184,18.555,30.762,-16.113,-9.277
1584599664.653,-6.836,20.996,25.879,-168.945,68.359
1584599664.657,36.621,29.785,34.668,40.527,21.973
1584599664.661,69.336,32.227,42.480,235.840,-24.902
1584599664.665,27.344,21.973,35.645,69.336,-9.766
1584599664.669,-11.230,13.672,30.762,-165.039,-6.836
1584599664.673,23.926,20.996,37.109,-33.203,-2.930
1584599664.677,66.406,26.367,39.551,219.238,23.926
1584599664.681,42.480,21.484,40.039,142.090,5.859
1584599664.685,-4.395,12.695,36.133,-127.441,-20.996
1584599664.688,11.719,15.137,32.715,-104.492,-56.641
1584599664.692,68.359,27.832,38.086,171.875,-10.742
1584599664.696,66.895,32.715,39.062,199.219,88.379
1584599664.700,6.348,22.461,30.273,-65.430,62.500
1584599664.704,-4.883,16.113,31.250,-154.297,54.199
1584599664.708,50.293,26.367,36.621,99.121,35.156
1584599664.712,74.707,35.156,33.691,227.539,6.836
1584599664.716,28.320,22.949,28.320,8.789,12.207
1584599664.720,-8.789,15.137,23.926,-171.875,-6.836
1584599664.724,25.879,22.461,30.273,18.066,10.254
1584599664.727,59.570,27.344,36.621,232.422,61.523
1584599664.731,24.414,20.020,33.203,89.355,22.949
1584599664.735,-29.297,10.742,27.344,-165.039,-29.785
1584599664.739,3.906,22.461,27.344,-69.824,-23.438
1584599664.743,64.453,33.691,32.715,198.242,-0.488
1584599664.747,50.781,25.879,29.297,155.762,-24.414
1584599664.751,5.859,19.043,23.926,-120.117,0.488
1584599664.755,14.160,24.902,25.391,-126.953,33.203
1584599664.759,62.988,36.133,32.715,154.297,28.809
1584599664.763,57.617,32.715,33.691,209.473,53.711
1584599664.767,0.000,20.508,26.855,-49.805,40.527
1584599664.770,-2.930,21.973,27.344,-158.691,42.969
1584599664.774,52.246,34.668,33.691,85.449,50.293
1584599664.778,65.430,34.668,34.668,230.957,30.273
1584599664.782,9.277,21.973,33.203,20.996,19.531
1584599664.786,-19.531,19.531,33.203,-176.758,24.902
1584599664.790,36.621,28.809,36.621,-2.441,34.668
1584599664.794,72.754,34.668,38.086,222.168,-10.254
1584599664.798,33.691,27.832,33.691,103.516,-20.508
1584599664.802,-12.207,18.066,30.273,-152.832,44.922
1584599664.806,8.789,21.484,31.738,-78.613,113.770
1584599664.810,58.594,30.762,39.062,197.266,106.934
1584599664.813,52.246,27.344,41.992,174.316,44.922
1584599664.817,0.000,15.137,36.621,-105.469,27.344
1584599664.821,-6.348,17.090,35.645,-142.090,21.484
1584599664.825,41.992,24.902,39.062,123.535,22.461
1584599664.829,55.176,25.391,37.109,202.148,58.594
1584599664.833,-1.465,17.578,31.250,-32.715,78.613
1584599664.837,-19.043,15.625,30.273,-165.527,62.988
1584599664.841,39.062,26.855,35.645,56.641,3.418
1584599664.845,67.383,33.691,38.086,229.492,18.555
1584599664.849,26.855,24.902,36.133,51.270,44.922
1584599664.852,-16.113,17.090,32.715,-166.992,-1.953
1584599664.856,20.508,30.273,39.062,-19.531,-5.859
1584599664.860,63.477,37.598,43.945,223.633,65.918
1584599664.864,40.039,26.855,31.738,126.953,41.992
1584599664.868,-2.930,17.578,23.926,-140.137,6.348
1584599664.872,20.020,25.391,27.832,-100.586,52.734
1584599664.876,73.242,36.621,34.668,176.270,12.207
1584599664.880,54.688,31.250,36.621,190.918,-2.930
1584599664.884,-8.301,16.602,30.762,-77.637,-19.043
1584599664.888,-4.395,16.113,29.297,-139.160,-0.977
1584599664.892,54.688,29.297,36.621,127.441,41.992
1584599664.895,66.406,30.273,34.668,229.980,15.625
1584599664.899,15.625,16.113,26.367,-6.348,7.324
1584599664.903,-10.254,10.254,27.344,-164.062,29.297
1584599664.907,38.574,24.414,33.203,46.387,-13.184
1584599664.911,74.707,31.738,33.203,241.699,7.812
1584599664.915,37.598,19.531,28.809,75.684,47.363
1584599664.919,-7.324,12.695,21.973,-161.621,33.203
1584599664.923,18.066,23.438,24.414,-37.598,18.066
1584599664.927,61.523,31.250,30.273,215.820,-12.207
1584599664.931,46.875,24.414,23.926,144.531,9.277
1584599664.935,-6.836,15.137,17.578,-122.559,89.844
1584599664.938,6.348,25.391,20.508,-103.516,74.219
1584599664.942,62.988,35.645,30.762,171.875,70.801
1584599664.946,56.641,30.762,28.320,200.684,74.219
1584599664.950,2.441,21.973,17.578,-70.312,-14.648
1584599664.954,-14.160,20.020,16.113,-164.062,-1.953
1584599664.958,39.551,30.762,23.438,87.891,39.062
1584599664.962,65.430,34.668,27.832,215.332,19.531
1584599664.966,15.625,22.461,21.973,-2.930,8.301
1584599664.970,-13.672,19.043,19.043,-179.199,51.270
1584599664.974,28.809,28.320,27.832,11.230,50.293
1584599664.977,57.617,33.203,33.691,223.145,35.645
1584599664.981,27.344,26.367,26.855,85.938,58.105
1584599664.985,-4.395,18.555,25.879,-157.715,64.453
1584599664.989,20.508,29.297,32.715,-58.594,22.461
1584599664.993,51.758,37.109,32.227,200.195,0.488
1584599664.997,36.621,29.785,30.762,153.320,47.852
1584599665.001,-13.184,22.949,29.785,-115.234,61.523
1584599665.005,-4.395,24.902,28.809,-125.000,42.969
1584599665.009,58.105,34.180,30.762,147.461,37.109
1584599665.013,58.105,35.645,30.762,210.449,122.559
1584599665.017,8.789,25.391,23.926,-41.016,95.703
1584599665.020,-1.953,25.391,21.973,-158.203,27.344
1584599665.024,48.828,37.598,29.297,79.102,50.781
1584599665.028,75.684,39.551,33.691,231.934,38.086
1584599665.032,31.250,24.902,29.785,38.086,27.344
1584599665.036,-10.254,17.090,25.879,-166.992,4.395
1584599665.040,25.879,26.855,33.203,-1.465,-24.414
1584599665.044,66.406,33.691,38.086,229.004,-27.832
1584599665.048,35.645,26.855,34.180,109.863,7.812
1584599665.052,-10.254,17.090,31.738,-146.973,60.547
1584599665.056,18.066,22.949,36.133,-76.660,-0.977
1584599665.060,74.219,34.668,41.016,195.312,5.859
1584599665.063,57.129,30.273,33.203,176.758,51.270
1584599665.067,5.859,20.508,24.902,-101.074,62.012
1584599665.071,9.277,22.949,28.320,-137.695,-17.090
1584599665.075,59.082,27.344,36.133,137.695,-28.809
1584599665.079,72.266,24.414,38.574,221.680,55.664
1584599665.083,25.391,17.578,31.738,-20.996,52.734
1584599665.087,-3.906,17.090,31.738,-156.250,13.184
1584599665.091,41.016,27.832,39.551,68.848,-17.090
1584599665.095,62.012,32.715,40.039,237.793,14.648
1584599665.099,17.090,24.414,33.203,51.270,-6.836
1584599665.102,-15.137,18.555,28.809,-169.434,-2.930
1584599665.106,24.414,25.879,32.227,-22.949,41.992
1584599665.110,64.941,30.762,31.250,214.355,-23.926
1584599665.114,37.109,27.832,22.949,114.258,15.137
1584599665.118,-7.324,20.996,18.066,-145.020,36.133
1584599665.122,18.555,27.344,22.949,-93.750,-2.930
1584599665.126,81.543,35.645,29.785,184.570,15.625
1584599665.130,63.965,30.273,25.391,190.918,13.672
1584599665.134,5.371,20.996,13.672,-81.055,71.777
1584599665.138,3.418,22.461,14.648,-148.438,71.289
1584599665.142,58.105,35.645,24.902,113.770,-2.441
1584599665.145,66.406,34.180,24.902,224.609,37.598
1584599665.149,7.324,22.461,16.602,-9.766,43.457
1584599665.153,-13.184,21.484,17.578,-174.805,0.488
1584599665.157,32.227,30.762,27.344,27.832,-1.953
1584599665.161,58.105,36.621,27.832,223.633,-2.930
1584599665.165,18.066,26.367,21.484,68.848,51.758
1584599665.169,-24.414,18.555,18.066,-165.527,28.320
1584599665.173,17.578,28.320,21.484,-46.387,-32.227
1584599665.177,72.754,38.086,26.367,210.938,-4.883
1584599665.181,47.363,32.227,23.438,141.113,-11.230
1584599665.185,-9.766,20.020,17.090,-132.812,18.066
1584599665.188,6.836,20.996,19.531,-114.746,45.410
1584599665.192,61.035,31.738,25.879,165.527,40.527
1584599665.196,57.617,31.738,25.391,200.195,20.020
1584599665.200,13.184,21.973,19.531,-64.453,-8.301
1584599665.204,-3.418,21.973,19.531,-159.668,3.418
1584599665.208,36.621,34.668,26.367,90.332,7.324
1584599665.212,52.246,31.250,30.762,221.191,10.742
1584599665.216,7.324,16.113,29.785,5.371,-19.531
1584599665.220,-17.578,10.254,24.414,-178.223,13.672
1584599665.224,23.926,25.879,25.391,12.695,72.266
1584599665.227,54.199,37.109,27.832,231.934,78.613
1584599665.231,19.043,26.367,22.461,85.938,50.781
1584599665.235,-31.250,16.602,19.531,-174.316,21.973
1584599665.239,-2.930,24.902,23.438,-76.172,62.988
1584599665.243,54.688,34.180,29.785,189.941,64.941
1584599665.247,35.645,26.855,29.297,134.766,78.125
1584599665.251,-19.531,18.066,21.973,-140.137,94.238
1584599665.255,-8.301,18.066,20.508,-142.578,50.781
1584599665.259,45.410,23.926,26.367,137.695,41.992
1584599665.263,42.969,26.855,25.879,198.242,46.387
1584599665.267,-11.230,18.555,16.602,-64.941,2.441
1584599665.270,-27.832,16.113,17.578,-188.965,12.695
1584599665.274,25.391,27.832,26.855,53.711,35.645
1584599665.278,54.199,28.320,28.320,217.773,19.531
1584599665.282,13.672,18.555,23.926,20.996,28.809
1584599665.286,-23.438,15.625,19.531,-183.105,17.090
1584599665.290,12.207,23.926,23.438,-21.484,39.062
1584599665.294,45.410,30.273,29.785,202.637,38.086
1584599665.298,10.254,25.391,28.809,93.750,29.297
1584599665.302,-34.180,16.113,24.902,-159.180,10.254
1584599665.306,-15.625,19.531,32.227,-92.773,34.668
1584599665.310,41.016,30.273,35.645,176.270,49.805
1584599665.313,35.645,29.785,30.273,160.645,-15.137
1584599665.317,-21.484,22.461,25.391,-112.793,-51.758
1584599665.321,-12.695,24.902,25.879,-154.297,5.371
1584599665.325,41.992,32.715,30.273,114.258,17.090
1584599665.329,45.898,32.227,33.691,201.660,18.066
1584599665.333,-0.977,18.066,29.297,-35.645,45.898
1584599665.337,-22.461,13.184,27.832,-177.246,-16.602
1584599665.341,27.344,27.344,36.621,42.480,-20.020
1584599665.345,58.594,33.691,37.109,224.121,19.531
1584599665.349,21.484,23.438,30.273,42.480,20.020
1584599665.352,-13.672,15.625,30.762,-178.711,41.992
1584599665.356,12.207,24.902,36.621,-31.738,15.137
1584599665.360,59.082,32.715,39.062,214.844,-2.930
1584599665.364,51.758,26.367,35.645,129.395,43.457
1584599665.368,-1.953,20.020,27.832,-140.137,68.359
1584599665.372,-9.277,28.809,27.344,-108.398,73.242
1584599665.376,33.691,35.645,35.645,162.598,90.332
1584599665.380,40.039,27.344,32.715,175.781,19.043
1584599665.384,7.324,20.508,24.902,-86.426,-6.348
1584599665.388,1.465,24.902,25.879,-151.855,67.383
1584599665.392,41.016,34.180,30.762,106.445,104.980
1584599665.395,50.781,31.738,29.297,211.914,77.148
1584599665.399,-0.977,18.555,26.367,-18.066,65.918
1584599665.403,-26.367,10.742,28.320,-177.246,49.805
1584599665.407,36.133,24.902,35.156,35.156,43.457
1584599665.411,79.590,41.016,34.668,231.934,50.293
1584599665.415,23.926,32.227,24.902,65.918,-2.441
1584599665.419,-36.621,19.531,19.531,-178.223,21.484
1584599665.423,2.441,25.391,25.391,-56.641,4.883
1584599665.427,67.383,27.832,30.762,206.543,-44.922
1584599665.431,51.758,21.973,26.855,140.625,-8.301
1584599665.435,-2.930,20.996,17.578,-134.766,45.410
1584599665.438,10.254,27.832,20.996,-124.512,24.902
1584599665.442,62.012,34.668,30.762,157.715,42.969
1584599665.446,57.129,33.203,31.250,201.172,62.500
1584599665.450,4.395,24.414,22.949,-59.082,42.969
1584599665.454,-14.648,25.391,17.090,-162.598,75.195
1584599665.458,30.273,37.109,24.414,79.102,90.332
1584599665.462,49.805,37.109,28.809,217.285,59.570
1584599665.466,-1.465,25.391,25.879,6.348,82.031
1584599665.470,-31.738,22.461,17.090,-184.082,48.340
1584599665.474,18.066,33.691,15.625,-3.418,22.949
1584599665.477,57.617,40.039,22.461,217.285,56.641
1584599665.481,25.879,32.227,21.484,89.355,17.578
1584599665.485,-16.602,21.484,14.160,-157.227,50.293
1584599665.489,18.066,28.809,14.160,-70.312,39.551
1584599665.493,72.266,42.480,20.020,189.941,-29.785
1584599665.497,50.781,39.062,18.066,146.484,-3.906
1584599665.501,-10.254,26.855,10.742,-124.512,-4.883
1584599665.505,-9.766,29.297,11.230,-139.648,45.410
1584599665.509,49.805,41.992,17.090,138.672,54.199
1584599665.513,60.059,40.039,16.113,206.543,-11.230
1584599665.517,8.301,26.855,11.230,-54.688,-21.484
1584599665.520,-6.348,28.320,12.207,-176.270,0.488
1584599665.524,42.480,41.016,19.043,67.871,-15.625
1584599665.528,52.246,38.086,17.578,217.285,-43.945
1584599665.532,-0.977,24.902,11.230,4.883,-4.883
1584599665.536,-26.367,24.414,8.301,-198.242,2.441
1584599665.540,25.391,33.691,14.648,-21.973,21.973
1584599665.544,60.547,36.621,20.996,220.215,1.465
1584599665.548,20.996,26.367,18.555,106.445,0.977
1584599665.552,-19.531,16.602,17.578,-155.273,30.273
1584599665.556,7.812,23.926,21.973,-84.961,34.180
1584599665.560,67.383,35.645,27.344,191.895,62.500
1584599665.563,52.734,32.227,24.414,174.805,63.965
1584599665.567,-12.207,17.090,19.043,-107.910,3.418
1584599665.571,-15.137,15.137,23.438,-147.949,45.410
1584599665.575,49.316,24.414,33.691,126.465,108.887
1584599665.579,63.477,25.391,29.785,212.891,32.227
1584599665.583,15.137,21.973,14.648,-29.785,8.789
1584599665.587,-5.371,22.949,12.207,-175.293,-0.977
1584599665.591,35.645,31.738,20.996,45.410,-48.340
1584599665.595,57.617,35.645,22.949,223.633,-2.441
1584599665.599,10.254,24.414,19.531,51.270,64.453
1584599665.602,-38.086,16.113,17.578,-169.922,51.758
1584599665.606,3.418,27.832,18.066,-26.367,20.996
1584599665.610,65.918,39.551,18.066,217.773,13.672
1584599665.614,42.480,31.738,13.672,125.000,6.836
1584599665.618,-12.207,19.043,12.695,-143.555,14.160
1584599665.622,3.418,21.973,21.484,-107.910,29.785
1584599665.626,63.477,31.250,27.344,173.340,79.102
1584599665.630,61.523,30.273,21.484,191.895,72.754
1584599665.634,4.883,20.996,11.230,-74.219,-12.695
1584599665.638,-6.836,18.555,12.695,-145.996,33.691
1584599665.642,47.363,25.879,22.949,107.910,85.938
1584599665.645,62.012,29.297,22.949,218.262,62.500
1584599665.649,14.160,23.926,13.184,-6.348,74.219
1584599665.653,-4.883,21.973,9.766,-168.457,24.902
1584599665.657,37.109,33.203,20.508,33.203,10.254
1584599665.661,63.965,32.715,26.855,230.469,23.926
1584599665.665,25.879,20.020,21.484,72.266,3.906
1584599665.669,-16.113,20.508,16.602,-168.945,-18.066
1584599665.673,12.207,30.762,22.461,-55.176,-61.035
1584599665.677,63.477,37.598,33.203,206.055,-43.945
1584599665.681,46.387,29.297,31.250,141.113,-21.973
1584599665.685,-5.859,16.113,20.508,-132.324,-49.805
1584599665.688,10.254,23.438,22.949,-118.164,-12.207
1584599665.692,70.312,36.133,26.367,161.621,63.477
1584599665.696,68.848,34.180,20.020,195.801,52.246
1584599665.700,12.695,21.973,13.184,-72.754,39.062
1584599665.704,-17.090,20.020,13.672,-170.410,32.227
1584599665.708,34.180,31.250,21.484,74.707,-5.859
1584599665.712,69.824,31.250,23.438,212.891,36.133
1584599665.716,27.832,22.461,20.020,11.719,4.395
1584599665.720,-2.441,22.461,19.531,-171.387,-25.879
1584599665.724,32.227,32.227,23.926,6.836,18.066
1584599665.727,68.848,35.156,25.879,216.309,38.574
1584599665.731,43.945,27.832,23.438,85.449,24.414
1584599665.735,-8.789,18.555,20.020,-155.762,7.812
1584599665.739,0.488,23.438,24.414,-67.871,11.719
1584599665.743,51.758,32.227,29.785,193.848,62.500
1584599665.747,42.969,27.832,22.949,159.668,20.996
1584599665.751,-7.812,19.043,16.113,-113.770,-26.367
1584599665.755,-4.395,19.043,20.020,-137.695,11.230
1584599665.759,58.105,27.832,28.320,141.113,38.574
1584599665.763,67.871,31.250,30.273,214.844,87.891
1584599665.767,2.930,21.484,24.902,-41.016,61.523
1584599665.770,-16.113,16.602,24.902,-173.340,-7.812
1584599665.774,39.551,23.926,30.762,59.570,14.648
1584599665.778,69.336,29.297,32.227,233.887,1.465
1584599665.782,27.344,23.438,27.344,41.992,-0.488
1584599665.786,-18.555,16.602,22.949,-173.340,55.176
1584599665.790,20.508,24.414,26.855,-10.742,22.461
1584599665.794,67.871,33.203,30.762,226.562,15.625
1584599665.798,42.480,28.320,23.926,113.770,51.758
1584599665.802,-8.301,17.090,17.578,-150.391,49.805
1584599665.806,14.648,20.020,22.949,-86.914,17.090
1584599665.810,67.871,31.250,29.785,185.547,48.340
1584599665.813,49.805,24.902,26.367,169.434,58.594
1584599665.817,-7.324,14.648,20.996,-107.422,40.527
1584599665.821,-6.836,21.484,25.391,-155.273,41.016
1584599665.825,47.363,31.250,31.738,119.141,32.715
1584599665.829,58.105,27.344,28.809,216.797,76.172
1584599665.833,14.160,20.508,20.996,-25.879,64.941
1584599665.837,-8.301,15.625,20.996,-173.828,26.367
1584599665.841,39.062,24.902,26.367,41.016,11.719
1584599665.845,73.242,35.156,29.297,222.656,45.898
1584599665.849,21.484,20.020,25.391,48.828,59.082
1584599665.852,-26.367,13.672,24.414,-172.363,38.574
1584599665.856,13.672,25.391,30.762,-27.344,21.484
1584599665.860,59.082,27.832,31.738,211.914,56.641
1584599665.864,40.039,21.484,26.855,116.699,19.531
1584599665.868,-5.859,14.648,24.414,-148.926,-40.527
1584599665.872,11.719,22.949,31.250,-107.422,25.879
1584599665.876,65.430,34.668,41.016,173.340,42.480
1584599665.880,62.988,31.738,35.645,184.082,-25.391
1584599665.884,9.277,22.461,24.414,-81.543,-9.766
1584599665.888,-3.418,22.949,22.461,-150.391,32.715
1584599665.892,46.387,35.645,31.250,106.445,48.340
1584599665.895,56.152,34.180,31.738,226.074,101.074
1584599665.899,6.836,18.066,21.973,-1.465,66.406
1584599665.903,-11.719,15.625,20.020,-174.316,20.020
1584599665.907,43.457,29.785,22.949,20.508,-7.812
1584599665.911,76.660,37.109,29.785,226.074,14.648
1584599665.915,27.344,26.367,31.738,82.520,48.340
1584599665.919,-21.484,17.578,25.879,-156.250,8.301
1584599665.923,14.648,29.297,26.855,-43.945,6.836
1584599665.927,66.895,39.551,29.297,217.285,117.676
1584599665.931,51.758,31.250,26.367,154.297,74.707
1584599665.935,-0.977,17.578,23.438,-121.094,19.531
1584599665.938,18.066,22.949,24.414,-118.164,44.434
1584599665.942,75.684,35.156,29.785,157.715,25.879
1584599665.946,66.406,32.227,29.785,202.637,-0.488
1584599665.950,13.184,17.578,19.531,-62.500,-66.406
1584599665.954,-4.395,17.578,18.066,-166.016,-46.875
1584599665.958,40.039,28.809,27.344,83.496,23.438
1584599665.962,60.547,28.320,30.273,229.004,49.805
1584599665.966,14.160,23.438,22.949,21.973,16.113
1584599665.970,-11.719,20.508,20.508,-166.016,22.461
1584599665.974,38.086,29.297,26.855,13.672,7.324
1584599665.977,77.148,34.668,31.250,225.586,33.203
1584599665.981,46.875,24.414,29.785,94.238,95.215
1584599665.985,-6.348,13.672,24.902,-157.715,13.672
1584599665.989,12.207,21.484,29.785,-67.871,10.742
1584599665.993,69.336,33.691,33.691,199.707,80.566
1584599665.997,55.176,29.785,24.414,155.273,82.031
1584599666.001,-4.883,18.555,16.113,-115.234,23.438
1584599666.005,0.977,19.531,20.020,-130.371,-3.906
1584599666.009,55.664,29.785,28.809,143.066,26.855
1584599666.013,57.129,29.785,27.832,209.961,40.039
1584599666.017,7.812,20.996,20.996,-41.016,46.875
1584599666.020,-6.348,17.578,19.043,-165.039,25.391
1584599666.024,47.852,26.855,22.461,63.477,23.438
1584599666.028,73.730,33.203,23.926,224.121,42.969
1584599666.032,21.484,23.438,19.043,34.180,23.926
1584599666.036,-9.277,18.066,13.184,-176.758,6.836
1584599666.040,29.785,26.855,15.625,-22.949,13.184
1584599666.044,66.406,35.645,21.973,212.891,16.602
1584599666.048,38.574,29.297,16.113,106.934,5.371
1584599666.052,-9.766,16.113,8.301,-153.320,20.996
1584599666.056,16.602,23.926,12.207,-88.867,88.379
1584599666.060,68.848,37.598,21.973,186.035,34.668
1584599666.063,50.781,33.691,20.508,177.246,10.254
1584599666.067,-0.488,20.508,12.695,-96.680,-8.789
1584599666.071,6.348,22.949,14.648,-148.438,-9.766
1584599666.075,58.105,31.250,25.391,119.141,75.195
1584599666.079,59.082,30.762,27.832,217.285,60.059
1584599666.083,1.465,22.949,19.043,-21.973,67.383
1584599666.087,-17.090,20.508,17.578,-175.293,39.062
1584599666.091,41.016,32.715,29.297,47.363,33.203
1584599666.095,68.848,34.180,31.738,236.328,76.172
1584599666.099,25.879,24.414,21.484,62.500,105.957
1584599666.102,-5.859,18.066,16.113,-165.527,54.199
1584599666.106,40.527,23.926,22.461,-32.715,1.953
1584599666.110,90.332,33.203,28.809,217.285,-3.418
1584599666.114,50.293,27.832,22.461,127.930,-25.391
1584599666.118,-15.625,17.090,15.625,-139.648,-6.348
1584599666.122,-4.883,19.531,20.996,-100.098,16.113
1584599666.126,54.199,33.203,30.762,175.293,-27.832
1584599666.130,61.523,33.691,31.250,190.918,-54.688
1584599666.134,9.277,23.926,21.973,-77.637,-17.090
1584599666.138,-6.348,29.785,20.996,-154.785,11.230
1584599666.142,50.293,40.527,30.273,106.934,16.113
1584599666.145,70.801,37.109,31.250,223.145,0.488
1584599666.149,24.902,28.320,21.484,-6.348,-13.672
1584599666.153,-3.906,26.855,24.414,-168.945,46.387
1584599666.157,37.598,34.180,36.621,34.668,102.539
1584599666.161,74.219,39.551,36.621,238.770,65.430
1584599666.165,42.480,33.691,25.391,82.520,27.832
1584599666.169,-2.441,24.902,20.996,-161.621,-2.441
1584599666.173,28.320,31.738,28.320,-50.293,9.277
1584599666.177,73.242,43.457,32.715,209.473,-7.324
1584599666.181,33.203,35.156,30.762,153.809,-6.836
1584599666.185,-25.391,20.508,26.855,-120.117,32.715
1584599666.188,3.418,25.879,30.273,-120.117,64.453
1584599666.192,72.754,37.109,35.156,149.902,58.105
1584599666.196,73.242,34.668,36.133,199.707,23.438
1584599666.200,11.230,21.973,29.297,-52.734,-0.488
1584599666.204,-6.836,21.484,22.461,-156.738,-49.805
1584599666.208,43.945,32.227,30.273,94.238,9.277
1584599666.212,66.895,31.250,33.691,235.352,53.711
1584599666.216,28.320,24.414,24.414,24.902,-1.953
1584599666.220,1.465,21.973,22.949,-164.062,28.809
1584599666.224,38.086,24.902,28.320,11.230,64.941
1584599666.227,69.824,28.809,30.762,231.934,25.391
1584599666.231,40.527,24.902,25.391,101.562,-8.301
1584599666.235,-4.883,13.672,20.508,-158.691,10.254
1584599666.239,22.949,20.508,28.809,-73.730,37.109
1584599666.243,74.707,34.180,35.156,201.172,57.617
1584599666.247,58.105,25.879,27.832,166.992,34.180
1584599666.251,-2.930,15.625,19.531,-112.305,-19.531
1584599666.255,-3.906,19.043,20.508,-138.672,14.648
1584599666.259,58.105,30.273,29.785,140.137,36.133
1584599666.263,67.383,31.738,30.273,211.426,17.090
1584599666.267,13.672,17.090,21.973,-42.480,31.250
1584599666.270,-10.254,11.230,24.414,-173.828,-18.066
1584599666.274,39.551,24.902,33.203,57.129,-25.391
1584599666.278,67.871,29.785,34.668,229.492,32.227
1584599666.282,29.297,18.555,30.273,35.156,41.504
1584599666.286,-3.418,16.602,28.809,-180.664,16.113
1584599666.290,26.855,27.832,34.180,-17.090,62.012
1584599666.294,61.035,34.180,34.668,225.586,46.387
1584599666.298,31.250,28.320,29.785,122.070,2.930
1584599666.302,-14.160,19.531,24.414,-140.625,35.156
1584599666.306,17.090,22.949,24.902,-87.402,-13.672
1584599666.310,71.289,32.715,29.297,184.082,-6.836
1584599666.313,58.594,30.273,29.297,184.082,48.340
1584599666.317,2.441,18.555,21.484,-87.402,53.711
1584599666.321,1.465,22.461,18.555,-147.461,20.996
1584599666.325,61.035,35.156,26.367,112.793,32.715
1584599666.329,74.219,36.133,25.879,206.543,75.195
1584599666.333,16.602,26.367,19.043,-25.391,46.875
1584599666.337,-4.395,22.949,19.043,-173.828,31.738
1584599666.341,44.434,33.691,21.973,43.457,68.848
1584599666.345,74.219,35.156,24.902,228.516,54.199
1584599666.349,34.668,26.367,25.879,57.129,3.418
1584599666.352,-8.301,20.996,23.926,-168.457,39.551
1584599666.356,34.668,29.297,28.320,-33.691,61.523
1584599666.360,79.102,33.691,33.691,216.309,45.410
1584599666.364,52.246,25.879,32.715,137.695,2.930
1584599666.368,-7.812,14.648,28.809,-135.742,-11.230
1584599666.372,-5.859,17.090,26.855,-111.816,18.066
1584599666.376,50.293,32.715,32.715,165.039,-41.016
1584599666.380,54.688,32.715,32.715,189.941,-31.738
1584599666.384,4.883,20.996,25.879,-71.289,33.203
1584599666.388,2.930,20.020,25.391,-151.855,48.828
1584599666.392,53.711,31.738,33.691,106.934,67.871
1584599666.395,63.965,36.621,36.621,230.469,67.383
1584599666.399,19.531,28.320,28.809,5.859,28.809
1584599666.403,-4.883,26.367,26.367,-166.992,42.969
1584599666.407,35.645,37.109,33.203,29.297,47.363
1584599666.411,70.801,40.527,34.180,230.957,21.484
1584599666.415,42.969,28.809,27.832,76.172,19.043
1584599666.419,0.488,21.484,22.949,-170.898,-7.812
1584599666.423,29.785,31.250,29.297,-56.152,16.602
1584599666.427,77.148,38.574,36.621,215.332,68.848
1584599666.431,45.898,29.785,33.691,160.645,53.711
1584599666.435,-18.555,20.020,26.367,-112.305,52.734
1584599666.438,-3.906,24.414,31.738,-108.887,41.992
1584599666.442,55.176,31.250,39.551,160.645,4.883
1584599666.446,62.988,31.250,37.598,203.125,19.531
1584599666.450,12.695,23.926,34.668,-53.223,48.828
1584599666.454,-3.906,23.438,31.250,-162.598,33.691
1584599666.458,51.758,29.785,33.691,80.078,37.109
1584599666.462,59.082,29.297,36.133,224.609,46.875
1584599666.466,5.859,23.926,30.273,15.137,25.391
1584599666.470,-18.555,20.020,25.879,-175.293,31.250
1584599666.474,20.996,26.367,29.297,3.906,58.105
1584599666.477,64.453,33.691,35.156,229.004,59.082
1584599666.481,35.645,26.367,30.273,103.516,57.129
1584599666.485,-17.090,18.555,21.973,-155.273,42.969
1584599666.489,16.602,29.297,27.832,-76.172,6.348
1584599666.493,81.543,40.527,37.598,195.801,12.695
1584599666.497,60.059,35.156,33.203,169.434,50.293
1584599666.501,-13.184,20.020,24.902,-104.004,55.176
1584599666.505,-14.160,21.973,25.391,-133.789,7.812
1584599666.509,46.875,31.738,28.320,134.277,-18.066
1584599666.513,59.570,28.809,26.855,206.543,15.625
1584599666.517,25.391,20.996,21.973,-42.480,17.090
1584599666.520,1.953,21.973,23.438,-171.387,47.363
1584599666.524,31.738,30.762,33.691,61.523,133.301
1584599666.528,60.547,33.203,38.086,233.398,56.641
1584599666.532,22.461,24.414,27.832,47.852,35.156
1584599666.536,-14.648,18.066,20.508,-168.457,51.758
1584599666.540,30.273,29.785,28.809,-13.672,17.090
1584599666.544,69.336,37.598,31.250,221.191,25.391
1584599666.548,37.598,27.832,29.297,118.164,24.414
1584599666.552,-9.766,15.625,23.926,-145.020,-2.441
1584599666.556,12.207,20.020,24.414,-92.773,16.602
1584599666.560,73.730,34.180,33.691,187.500,36.133
1584599666.563,54.688,28.809,30.762,185.547,20.996
1584599666.567,-4.395,17.578,20.508,-92.285,20.508
1584599666.571,-3.906,22.949,22.949,-143.066,-22.949
1584599666.575,47.363,30.273,33.203,127.441,12.695
1584599666.579,61.523,30.273,27.832,222.656,-3.906
1584599666.583,12.695,26.367,16.602,-17.090,-25.391
1584599666.587,-8.789,22.949,16.602,-174.805,43.945
1584599666.591,42.969,35.156,23.438,40.039,58.594
1584599666.595,72.754,37.109,28.809,232.910,32.227
1584599666.599,24.902,21.973,24.902,64.941,2.930
1584599666.602,-21.973,17.578,19.531,-162.598,33.691
1584599666.606,11.719,31.250,21.484,-30.273,72.266
1584599666.610,60.059,38.574,25.879,210.449,23.926
1584599666.614,39.062,33.691,25.879,127.441,20.996
1584599666.618,-6.836,24.902,19.531,-135.742,29.297
1584599666.622,11.719,28.320,20.508,-107.422,16.602
1584599666.626,68.359,39.551,28.809,171.387,42.969
1584599666.630,62.500,34.668,25.879,194.824,10.254
1584599666.634,3.906,22.461,19.531,-71.777,-10.742
1584599666.638,-3.418,25.391,20.508,-152.832,-7.324
1584599666.642,52.734,36.133,29.297,96.680,-9.277
1584599666.645,73.242,39.551,32.227,224.121,22.949
1584599666.649,12.207,30.762,26.367,4.395,61.523
1584599666.653,-26.367,22.949,22.949,-177.246,94.727
1584599666.657,31.738,33.691,24.902,7.812,7.812
1584599666.661,70.801,42.480,30.273,217.285,-17.090
1584599666.665,28.320,28.320,26.855,79.590,47.852
1584599666.669,-13.672,19.531,22.949,-165.039,19.531
1584599666.673,15.625,29.297,28.320,-61.523,-19.043
1584599666.677,68.359,37.109,36.133,203.613,-29.785
1584599666.681,54.688,29.785,36.133,154.297,-20.996
1584599666.685,-4.883,17.090,27.832,-122.070,7.324
1584599666.688,-3.906,22.461,26.367,-125.977,10.742
1584599666.692,59.570,35.645,32.715,152.344,50.781
1584599666.696,73.242,32.227,31.738,204.102,88.867
1584599666.700,27.344,18.066,19.531,-60.059,20.508
1584599666.704,6.836,18.066,19.531,-174.316,0.977
1584599666.708,47.363,33.203,28.809,76.172,9.277
1584599666.712,57.617,30.762,29.297,228.027,16.602
1584599666.716,3.906,19.531,24.414,22.949,47.852
1584599666.720,-22.949,20.996,20.020,-175.293,56.641
1584599666.724,21.484,28.809,22.461,-4.395,36.621
1584599666.727,60.547,37.598,29.297,222.168,-13.672
1584599666.731,33.691,35.645,28.320,103.516,15.137
1584599666.735,-5.859,26.367,21.973,-155.273,20.020
1584599666.739,11.230,27.344,28.320,-77.637,1.953
1584599666.743,55.176,33.203,36.621,196.289,26.367
1584599666.747,46.387,30.762,33.203,163.086,14.648
1584599666.751,-8.301,23.926,28.320,-109.375,41.504
1584599666.755,-1.953,24.414,28.320,-135.254,34.180
1584599666.759,63.477,35.156,32.227,135.254,-0.488
1584599666.763,71.289,37.598,35.156,213.867,25.879
1584599666.767,8.301,27.832,28.809,-32.715,22.461
1584599666.770,-8.301,25.879,21.973,-171.387,-38.574
1584599666.774,46.387,36.621,29.785,56.152,-12.207
1584599666.778,64.453,41.016,32.715,230.469,29.785
1584599666.782,17.578,28.320,27.344,46.875,62.500
1584599666.786,-18.555,20.020,22.949,-170.410,50.293
1584599666.790,25.391,30.762,26.855,-21.973,-1.953
1584599666.794,71.289,39.551,34.668,217.773,-36.133
1584599666.798,39.551,36.133,34.180,121.582,-9.766
1584599666.802,-14.160,28.320,29.297,-140.137,87.891
1584599666.806,2.930,31.250,31.250,-91.309,52.246
1584599666.810,63.477,41.504,40.039,184.082,-7.324
1584599666.813,59.082,38.086,38.086,182.129,-11.719
1584599666.817,11.230,26.855,31.738,-91.309,-54.199
1584599666.821,2.930,27.832,30.273,-151.367,-24.414
1584599666.825,43.945,36.133,35.156,114.258,-5.859
1584599666.829,58.105,35.156,39.062,223.145,18.066
1584599666.833,15.625,21.484,30.273,-10.742,68.848
1584599666.837,-4.395,15.625,25.391,-169.922,48.828
1584599666.841,42.969,30.273,34.668,41.016,72.754
1584599666.845,70.801,37.109,38.086,235.352,90.820
1584599666.849,24.414,28.320,32.227,66.895,34.668
1584599666.852,-18.066,21.973,28.320,-167.969,18.066
1584599666.856,21.484,29.297,34.668,-35.645,54.199
1584599666.860,68.359,36.621,40.039,218.750,101.074
1584599666.864,43.945,30.762,34.180,138.672,28.809
1584599666.868,-8.301,21.484,30.762,-134.277,4.883
1584599666.872,7.812,28.320,30.762,-113.770,61.523
1584599666.876,68.848,39.551,31.250,161.621,53.223
1584599666.880,70.312,34.180,32.227,185.547,26.855
1584599666.884,8.301,16.113,29.785,-82.520,-16.113
1584599666.888,-5.371,17.090,26.367,-162.598,-21.484
1584599666.892,54.688,30.762,27.832,93.750,14.648
1584599666.895,70.801,31.738,29.785,218.262,43.945
1584599666.899,24.414,22.461,24.902,0.488,90.820
1584599666.903,-10.742,17.090,23.438,-181.152,73.242
1584599666.907,31.250,27.344,32.227,13.672,15.137
1584599666.911,65.430,37.109,33.691,227.539,38.086
1584599666.915,27.344,25.879,24.902,83.008,33.203
1584599666.919,-14.648,13.672,19.531,-165.527,35.645
1584599666.923,10.254,21.484,25.879,-63.477,83.496
1584599666.927,54.688,28.809,30.762,202.637,76.172
1584599666.931,40.039,25.391,28.809,154.297,66.406
1584599666.935,-3.418,18.066,23.926,-119.629,55.176
1584599666.938,5.859,17.090,19.531,-126.953,47.852
1584599666.942,59.082,27.832,25.391,142.090,24.414
1584599666.946,60.059,30.762,25.879,191.406,1.953
1584599666.950,17.090,20.508,19.043,-60.059,-23.926
1584599666.954,10.742,20.508,19.531,-163.086,15.625
1584599666.958,42.480,29.785,21.973,77.148,68.359
1584599666.962,53.223,31.250,22.949,225.586,41.504
1584599666.966,13.672,22.461,20.508,25.391,23.926
1584599666.970,-13.672,16.113,19.531,-170.410,-5.859
1584599666.974,31.250,27.344,24.902,2.930,1.953
1584599666.977,70.801,38.086,29.785,227.539,42.480
1584599666.981,42.480,32.227,24.414,104.980,65.918
1584599666.985,-0.977,20.996,14.648,-155.273,-5.859
1584599666.989,22.461,27.344,17.090,-83.984,-3.906
1584599666.993,71.777,39.062,23.438,195.801,31.738
1584599666.997,55.664,34.180,21.973,175.293,26.367
1584599667.001,0.488,25.879,14.648,-99.121,17.578
1584599667.005,4.395,31.250,14.648,-130.859,35.645
1584599667.009,57.617,41.992,20.996,139.648,75.195
1584599667.013,63.477,36.621,20.996,217.773,55.664
1584599667.017,19.531,23.926,15.625,-29.785,64.941
1584599667.020,5.371,21.973,14.160,-168.945,50.781
1584599667.024,50.781,32.227,20.020,59.570,23.926
1584599667.028,83.008,37.109,21.973,232.910,51.758
1584599667.032,38.574,27.832,16.602,44.922,102.051
1584599667.036,-10.742,21.484,14.648,-175.293,62.012
1584599667.040,29.785,32.227,25.879,-21.484,24.414
1584599667.044,69.824,39.062,31.250,227.051,78.125
1584599667.048,45.410,31.738,23.926,131.348,19.531
1584599667.052,-4.395,24.414,20.996,-132.324,-5.859
1584599667.056,12.207,27.344,27.344,-83.008,109.863
1584599667.060,69.824,36.621,31.250,190.430,70.312
1584599667.063,59.570,31.738,27.832,190.430,24.902
1584599667.067,-2.930,14.160,24.902,-77.637,24.414
1584599667.071,-6.836,16.113,29.297,-135.742,10.254
1584599667.075,50.293,28.809,35.156,120.117,51.270
1584599667.079,65.918,27.832,37.598,220.703,70.312
1584599667.083,16.602,19.043,30.762,-6.348,21.973
1584599667.087,-11.230,16.113,23.926,-166.504,26.367
1584599667.091,42.480,30.273,31.738,41.504,60.547
1584599667.095,76.660,37.109,37.598,230.469,21.973
1584599667.099,38.086,24.414,33.203,67.383,-14.648
1584599667.102,-8.789,14.160,31.250,-164.062,25.391
1584599667.106,17.578,22.461,38.086,-41.016,29.785
1584599667.110,63.965,33.691,39.551,212.402,-37.109
1584599667.114,43.457,27.832,31.738,139.160,-7.324
1584599667.118,-18.066,14.648,24.414,-133.789,19.043
1584599667.122,-6.836,21.973,25.879,-115.723,28.320
1584599667.126,55.664,37.598,32.227,164.551,32.227
1584599667.130,55.176,36.133,27.832,198.242,8.789
1584599667.134,4.883,25.391,17.090,-70.312,49.316
1584599667.138,1.465,22.461,17.578,-161.621,-3.418
1584599667.142,60.059,31.738,25.391,92.773,-4.395
1584599667.145,72.754,34.668,27.344,224.121,18.555
1584599667.149,14.160,22.949,21.484,12.207,-16.113
1584599667.153,-20.020,17.090,18.555,-169.922,47.852
1584599667.157,23.926,27.344,23.438,19.043,62.500
1584599667.161,63.477,33.203,25.879,231.934,24.902
1584599667.165,34.180,25.879,20.508,82.031,37.109
1584599667.169,-11.719,19.043,18.066,-168.457,55.176
1584599667.173,18.066,29.785,27.832,-60.547,60.059
1584599667.177,61.523,39.062,32.227,203.613,22.461
1584599667.181,49.316,29.785,29.297,150.391,-7.812
1584599667.185,8.789,18.066,27.344,-122.070,-22.949
1584599667.188,14.648,25.391,27.344,-123.535,25.391
1584599667.192,62.500,37.598,29.297,153.320,44.434
1584599667.196,55.664,32.715,25.879,205.566,36.133
1584599667.200,2.441,19.531,20.020,-50.293,13.672
1584599667.204,-2.441,20.996,22.949,-162.109,20.020
1584599667.208,48.340,31.738,31.250,74.707,8.789
1584599667.212,59.570,35.645,34.180,225.586,17.090
1584599667.216,14.160,30.273,29.297,26.855,40.527
1584599667.220,-21.484,21.484,25.879,-169.434,11.719
1584599667.224,26.367,31.250,27.832,0.000,40.039
1584599667.227,72.266,42.969,29.297,228.027,34.180
1584599667.231,32.715,30.762,28.809,112.305,27.832
1584599667.235,-16.602,18.066,28.320,-145.020,28.320
1584599667.239,17.090,24.902,34.668,-73.730,2.441
1584599667.243,69.824,34.668,39.551,195.312,27.832
1584599667.247,49.805,31.250,40.039,174.805,58.105
1584599667.251,-2.441,22.461,33.691,-101.074,48.340
1584599667.255,1.465,23.438,25.391,-145.508,41.504
1584599667.259,57.129,34.180,26.367,123.535,50.293
1584599667.263,63.965,34.180,24.902,211.426,30.273
1584599667.267,4.395,19.531,19.043,-27.832,38.086
1584599667.270,-16.113,14.648,18.066,-172.852,20.020
1584599667.274,33.691,29.297,26.367,44.434,-27.832
1584599667.278,62.988,35.156,30.762,224.609,-11.230
1584599667.282,25.879,24.902,25.879,48.340,4.883
1584599667.286,-17.090,18.555,23.438,-174.316,8.301
1584599667.290,18.066,25.391,29.785,-24.902,26.367
1584599667.294,72.266,33.691,34.668,221.191,27.832
1584599667.298,53.223,29.297,28.320,127.930,-26.367
1584599667.302,-2.930,19.531,22.461,-139.648,-29.297
1584599667.306,11.719,24.902,24.902,-100.586,-23.926
1584599667.310,58.594,36.621,26.367,179.688,-39.062
1584599667.313,51.270,34.668,24.414,186.523,29.785
1584599667.317,0.977,20.020,22.949,-88.867,80.078
1584599667.321,-3.906,20.508,26.367,-149.414,57.617
1584599667.325,50.781,34.180,28.809,112.793,10.254
1584599667.329,61.035,34.668,26.855,219.238,2.441
1584599667.333,13.672,21.484,22.461,-7.324,31.738
1584599667.337,-1.465,17.578,19.531,-167.969,20.020
1584599667.341,49.805,28.320,25.391,42.480,45.898
1584599667.345,70.801,30.273,31.738,236.816,30.762
1584599667.349,31.250,22.461,24.414,75.195,-14.648
1584599667.352,-9.766,17.578,19.043,-160.645,14.160
1584599667.356,19.043,25.391,23.438,-38.086,44.434
1584599667.360,70.801,33.203,20.996,213.379,47.363
1584599667.364,52.734,30.762,17.578,137.695,31.738
1584599667.368,-4.395,20.996,16.113,-132.324,38.574
1584599667.372,4.883,21.973,13.672,-116.699,33.203
1584599667.376,62.012,31.738,22.949,163.086,72.266
1584599667.380,62.012,30.762,27.344,203.125,79.590
1584599667.384,13.672,25.391,17.578,-57.617,53.223
1584599667.388,0.977,26.855,18.555,-149.414,7.324
1584599667.392,51.758,35.645,29.785,94.727,-30.762
1584599667.395,72.266,38.574,27.832,221.680,11.719
1584599667.399,27.832,30.762,20.508,8.301,80.078
1584599667.403,-9.766,25.391,22.461,-169.922,57.617
1584599667.407,23.926,30.762,29.785,11.719,6.348
1584599667.411,61.523,37.598,32.227,223.145,20.508
1584599667.415,30.273,32.227,27.344,94.727,17.090
1584599667.419,-8.789,25.391,23.438,-154.297,24.902
1584599667.423,21.484,29.297,30.273,-62.500,27.344
1584599667.427,65.918,37.598,35.645,203.613,11.719
1584599667.431,42.480,30.762,28.320,159.668,32.227
1584599667.435,-14.648,19.043,19.531,-116.699,-0.977
1584599667.438,-0.977,25.879,21.973,-127.441,15.625
1584599667.442,67.871,37.598,27.832,148.438,-17.090
1584599667.446,71.289,35.645,26.855,208.008,-56.641
1584599667.450,8.789,21.484,20.508,-49.316,-0.977
1584599667.454,-11.230,21.973,20.996,-170.410,20.020
1584599667.458,45.898,38.574,33.203,74.707,70.312
1584599667.462,70.801,37.598,39.062,237.305,37.109
1584599667.466,14.648,22.949,33.691,39.551,26.855
1584599667.470,-18.555,20.020,24.414,-168.457,62.988
1584599667.474,33.691,31.738,23.926,-3.418,31.250
1584599667.477,76.172,38.086,29.785,229.980,31.250
1584599667.481,43.457,30.273,27.832,115.723,41.016
1584599667.485,-12.207,20.508,19.531,-149.902,73.242
1584599667.489,6.348,24.902,20.020,-85.938,82.031
1584599667.493,67.383,36.133,26.855,187.500,45.410
1584599667.497,59.570,34.180,27.344,167.480,13.184
1584599667.501,-11.719,25.391,24.414,-105.957,8.789
1584599667.505,-17.578,26.855,24.414,-143.555,19.531
1584599667.509,39.551,36.621,30.273,124.023,28.809
1584599667.513,49.805,33.691,32.227,212.402,37.598
1584599667.517,16.602,15.625,31.250,-14.648,56.152
1584599667.520,8.301,16.602,28.320,-147.461,26.367
1584599667.524,45.410,38.086,23.926,52.246,16.602
1584599667.528,56.641,41.504,25.391,217.285,87.891
