timestamps,TP9,AF7,AF8,TP10,Right AUX
1584599719.642,37.109,26.855,26.367,21.973,52.246
1584599719.645,53.223,36.621,35.156,81.543,23.438
1584599719.649,42.969,38.574,33.691,60.059,10.742
1584599719.653,21.484,15.625,22.949,-2.930,60.059
1584599719.657,28.809,15.625,22.461,3.906,49.805
1584599719.661,49.805,31.738,24.902,63.477,-16.113
1584599719.665,39.551,31.250,23.438,60.547,-22.461
1584599719.669,14.160,23.926,22.461,-3.418,-0.488
1584599719.673,20.996,21.484,17.578,-17.578,33.691
1584599719.677,39.062,28.320,20.996,48.340,45.410
1584599719.681,36.621,27.832,24.414,77.148,72.266
1584599719.685,7.812,22.949,19.043,13.184,16.602
1584599719.688,2.930,27.344,20.020,-20.996,-66.895
1584599719.692,32.227,31.250,25.391,37.109,-13.672
1584599719.696,38.574,25.879,20.996,78.125,30.762
1584599719.700,15.625,21.973,16.113,31.250,-29.785
1584599719.704,1.465,22.461,18.066,-23.438,-11.719
1584599719.708,24.414,26.855,22.949,9.766,81.543
1584599719.712,45.898,32.715,29.297,66.406,62.500
1584599719.716,31.250,32.715,31.738,44.922,28.809
1584599719.720,10.254,26.855,25.879,-17.578,59.570
1584599719.724,26.855,28.320,20.996,-6.348,75.195
1584599719.727,50.781,32.227,23.926,64.941,-17.090
1584599719.731,37.109,23.926,24.414,63.965,4.883
1584599719.735,2.930,18.066,20.020,-3.906,52.246
1584599719.739,-1.465,22.949,18.066,-13.672,65.918
1584599719.743,30.762,29.785,20.996,48.828,0.977
1584599719.747,40.039,31.250,26.367,72.754,25.391
1584599719.751,15.625,27.832,28.320,21.484,82.031
1584599719.755,6.836,26.855,23.438,-21.973,31.250
1584599719.759,33.203,30.273,28.320,22.461,25.879
1584599719.763,45.410,35.156,32.227,65.430,15.137
1584599719.767,21.973,28.320,30.762,24.414,-31.250
1584599719.770,19.043,17.578,38.086,-4.395,7.324
1584599719.774,57.617,20.996,43.945,46.875,40.039
1584599719.778,76.660,38.574,38.086,95.703,30.273
1584599719.782,38.086,47.852,26.367,51.758,22.461
1584599719.786,-11.719,42.969,15.137,-34.668,57.129
1584599719.790,-0.977,42.969,14.648,-31.738,53.711
1584599719.794,40.039,40.527,20.020,45.898,39.062
1584599719.798,40.039,43.457,17.090,51.758,89.844
1584599719.802,14.648,48.340,6.348,-14.648,47.852
1584599719.806,5.859,38.086,5.859,-44.922,5.859
1584599719.810,25.879,34.668,8.301,13.672,13.672
1584599719.813,36.621,54.199,7.812,49.316,-10.742
1584599719.817,8.789,58.105,8.789,-3.906,23.926
1584599719.821,-1.465,45.410,8.301,-37.598,25.879
1584599719.825,27.832,45.898,4.883,8.301,28.320
1584599719.829,52.246,49.805,3.906,62.500,55.176
1584599719.833,40.039,45.898,3.906,39.551,-11.230
1584599719.837,10.742,41.992,7.812,-14.648,-13.672
1584599719.841,27.832,47.852,14.160,2.930,0.000
1584599719.845,54.199,45.898,18.066,62.988,44.922
1584599719.849,39.062,37.109,15.137,51.758,111.816
1584599719.852,14.648,38.574,9.277,-13.672,92.285
1584599719.856,23.926,43.945,16.113,-7.324,-11.719
1584599719.860,45.898,47.852,26.367,60.059,-17.578
1584599719.864,44.922,48.828,25.879,70.312,53.711
1584599719.868,18.555,38.574,21.484,7.324,44.434
1584599719.872,13.184,32.715,17.578,-26.855,60.059
1584599719.876,41.504,33.203,15.625,31.738,52.734
1584599719.880,54.199,25.879,20.508,78.125,38.574
1584599719.884,34.668,27.344,22.949,30.273,52.246
1584599719.888,18.555,31.250,14.648,-21.973,50.781
1584599719.892,39.551,30.762,16.113,18.555,2.441
1584599719.895,58.594,29.785,28.320,71.777,-0.488
1584599719.899,35.645,24.414,26.367,39.551,21.973
1584599719.903,7.812,16.602,18.555,-19.043,-39.062
1584599719.907,26.367,22.949,20.508,0.977,-28.809
1584599719.911,50.293,30.762,23.438,62.012,61.035
1584599719.915,33.203,30.273,19.531,49.316,33.691
1584599719.919,11.230,29.297,19.531,-11.230,-15.625
1584599719.923,22.461,33.691,25.879,-11.719,37.109
1584599719.927,59.570,39.551,30.762,57.617,58.105
1584599719.931,61.035,26.855,30.273,83.008,4.883
1584599719.935,18.066,12.695,26.855,22.949,22.949
1584599719.938,2.930,26.367,30.762,-8.301,48.340
1584599719.942,27.344,32.227,32.715,39.551,10.254
1584599719.946,36.621,15.625,24.902,67.383,31.738
1584599719.950,17.578,13.184,21.484,20.508,27.832
1584599719.954,11.719,20.996,26.855,-21.973,-7.812
1584599719.958,34.180,21.484,32.715,16.113,30.273
1584599719.962,46.875,32.715,34.180,71.289,12.695
1584599719.966,31.738,29.785,27.832,47.852,-1.953
1584599719.970,12.695,15.137,19.043,-14.160,35.156
1584599719.974,22.949,20.020,18.066,-1.465,27.832
1584599719.977,45.898,25.391,21.484,66.406,52.246
1584599719.981,44.922,24.902,25.391,68.359,49.316
1584599719.985,24.414,21.973,20.020,0.977,33.691
1584599719.989,22.461,18.066,13.672,-17.090,49.316
1584599719.993,43.457,22.949,18.066,49.805,39.062
1584599719.997,45.898,32.227,21.973,76.172,3.906
1584599720.001,24.902,28.809,24.414,17.578,-5.371
1584599720.005,22.461,31.250,27.344,-14.160,49.316
1584599720.009,35.645,24.414,23.438,30.273,57.129
1584599720.013,42.480,14.160,25.391,73.730,-0.977
1584599720.017,19.531,17.090,24.902,38.086,11.719
1584599720.020,-4.395,20.020,20.996,-13.184,62.500
1584599720.024,17.578,26.855,26.855,17.090,71.777
1584599720.028,40.527,34.180,25.879,75.684,81.543
1584599720.032,23.926,32.227,21.973,60.547,64.453
1584599720.036,4.883,30.273,25.879,0.488,32.715
1584599720.040,19.043,28.809,27.832,1.953,5.371
1584599720.044,41.504,25.879,25.879,63.965,6.836
1584599720.048,37.598,25.391,24.414,67.383,6.348
1584599720.052,5.859,26.367,22.461,5.371,-12.695
1584599720.056,1.465,30.762,23.926,-10.742,7.324
1584599720.060,29.297,36.133,26.855,50.293,33.203
1584599720.063,36.621,38.574,31.250,79.102,-6.836
1584599720.067,14.160,32.227,29.785,22.461,-23.926
1584599720.071,7.324,35.156,23.926,-20.020,20.508
1584599720.075,34.668,43.945,27.832,24.902,8.301
1584599720.079,50.781,47.363,29.785,81.055,54.688
1584599720.083,36.133,48.828,29.785,49.805,99.121
1584599720.087,19.531,42.969,29.785,-6.836,73.242
1584599720.091,39.062,40.527,28.320,18.066,113.281
1584599720.095,73.242,48.828,30.762,93.262,63.965
1584599720.099,60.547,50.293,31.738,91.309,14.648
1584599720.102,6.348,43.945,31.250,-2.441,6.836
1584599720.106,-0.488,50.293,37.109,-18.555,39.062
1584599720.110,34.668,56.641,45.898,60.547,44.922
1584599720.114,28.320,48.828,40.527,71.289,20.508
1584599720.118,4.883,44.434,33.203,9.277,8.789
1584599720.122,13.184,49.316,36.133,-13.184,38.086
1584599720.126,46.387,54.199,39.062,48.340,12.207
1584599720.130,56.152,53.223,41.992,95.215,-12.695
1584599720.134,32.227,50.293,42.480,47.852,17.578
1584599720.138,11.230,50.293,44.434,-5.371,20.508
1584599720.142,27.832,59.082,48.828,30.273,13.672
1584599720.145,48.828,63.965,49.805,89.355,23.438
1584599720.149,29.297,61.523,46.387,62.988,59.570
1584599720.153,10.254,57.617,41.992,-1.953,44.922
1584599720.157,29.297,56.641,39.062,14.160,42.969
1584599720.161,52.246,64.453,36.621,77.637,23.926
1584599720.165,45.898,70.801,39.551,69.824,4.883
1584599720.169,22.949,66.406,38.574,7.324,8.789
1584599720.173,27.832,62.988,35.645,-4.883,5.371
1584599720.177,47.363,64.941,38.574,58.105,22.949
1584599720.181,40.527,64.453,35.645,74.707,71.289
1584599720.185,16.602,61.035,35.156,11.230,81.055
1584599720.188,6.836,57.129,38.086,-21.484,14.160
1584599720.192,29.785,64.453,40.039,33.203,8.789
1584599720.196,43.945,71.777,43.457,79.590,44.922
1584599720.200,12.207,63.477,37.598,28.809,14.160
1584599720.204,-2.441,59.570,34.668,-25.391,-16.602
1584599720.208,23.926,60.059,39.062,15.625,-21.484
1584599720.212,38.086,62.500,48.340,80.566,-0.488
1584599720.216,21.973,68.359,50.781,55.176,57.129
1584599720.220,0.977,64.453,40.527,-12.207,103.027
1584599720.224,13.184,62.012,36.621,-4.395,63.477
1584599720.227,36.621,62.012,40.527,55.176,6.836
1584599720.231,31.250,61.035,41.504,55.176,-4.883
1584599720.235,6.348,58.105,39.062,-5.371,-8.301
1584599720.239,5.859,57.617,37.598,-20.996,9.766
1584599720.243,28.320,60.547,39.551,42.480,0.977
1584599720.247,24.902,59.570,36.133,72.754,5.859
1584599720.251,1.953,52.734,32.715,21.973,20.508
1584599720.255,15.625,51.270,37.109,2.930,2.441
1584599720.259,48.828,59.082,36.621,58.594,-21.973
1584599720.263,44.434,67.383,35.156,82.031,18.555
1584599720.267,8.301,64.453,33.691,23.438,56.152
1584599720.270,-10.254,60.547,24.414,-38.086,32.227
1584599720.274,19.043,69.824,19.531,-8.301,-8.789
1584599720.278,41.504,71.289,22.949,57.617,12.695
1584599720.282,23.926,64.941,22.949,43.945,24.902
1584599720.286,0.488,65.918,19.531,-25.391,72.266
1584599720.290,11.719,72.266,19.531,-23.926,69.336
1584599720.294,44.434,80.078,22.949,47.363,8.301
1584599720.298,39.062,80.078,22.461,56.152,53.711
1584599720.302,18.555,71.777,22.461,-0.977,81.055
1584599720.306,27.344,70.801,27.832,-19.531,43.945
1584599720.310,48.828,70.801,32.715,47.363,79.102
1584599720.313,51.270,70.312,30.762,79.590,64.453
1584599720.317,33.203,70.312,32.715,24.902,6.348
1584599720.321,24.902,65.430,30.762,-21.973,0.000
1584599720.325,40.039,73.242,25.391,18.066,-3.418
1584599720.329,57.129,81.543,29.297,78.125,18.555
1584599720.333,40.527,70.312,26.367,38.086,-1.953
1584599720.337,15.625,63.477,21.973,-23.926,-56.152
1584599720.341,32.715,64.941,22.461,10.254,-18.555
1584599720.345,53.223,67.383,26.367,77.637,9.277
1584599720.349,37.598,63.477,26.855,65.918,37.109
1584599720.352,13.184,56.152,26.855,0.977,43.945
1584599720.356,21.484,55.176,26.855,-2.441,18.066
1584599720.360,51.270,61.035,30.273,64.453,-12.695
1584599720.364,48.340,56.152,30.762,78.125,8.789
1584599720.368,14.160,44.922,25.391,11.230,53.223
1584599720.372,9.766,47.363,24.414,-17.090,59.570
1584599720.376,39.551,55.664,26.855,39.062,29.297
1584599720.380,46.387,56.641,28.320,73.730,-10.742
1584599720.384,22.461,47.363,26.367,26.855,9.277
1584599720.388,4.883,43.945,24.902,-19.043,21.973
1584599720.392,23.438,48.828,25.391,20.996,31.738
1584599720.395,41.016,46.875,28.809,76.660,49.805
1584599720.399,24.902,42.969,31.250,45.410,14.648
1584599720.403,9.766,41.016,31.738,-13.672,-16.602
1584599720.407,24.414,41.016,33.691,1.953,15.625
1584599720.411,43.945,38.086,31.250,65.430,22.461
1584599720.415,36.621,37.109,36.133,64.453,-19.043
1584599720.419,17.578,36.621,39.062,4.395,-9.277
1584599720.423,18.066,31.738,30.273,-14.648,-8.789
1584599720.427,36.621,29.785,30.273,46.387,4.395
1584599720.431,38.086,30.762,33.203,72.754,46.875
1584599720.435,14.160,29.297,31.250,12.207,80.078
1584599720.438,8.301,27.832,32.227,-19.531,54.199
1584599720.442,29.785,31.738,33.691,34.668,30.762
1584599720.446,37.598,31.250,29.785,75.195,-27.832
1584599720.450,20.508,25.391,29.297,35.156,-27.344
1584599720.454,6.348,16.602,29.785,-17.090,70.312
1584599720.458,18.066,19.531,29.297,14.160,33.691
1584599720.462,32.227,20.508,33.691,78.125,-25.391
1584599720.466,18.066,12.207,32.715,51.270,-2.930
1584599720.470,1.465,14.648,26.367,-21.484,-43.457
1584599720.474,15.625,19.531,26.855,-13.672,19.531
1584599720.477,38.574,20.020,32.227,56.641,42.969
1584599720.481,33.203,18.555,31.738,62.988,-4.883
1584599720.485,3.418,16.113,27.344,-4.395,19.531
1584599720.489,4.883,15.137,29.785,-22.949,0.977
1584599720.493,36.133,20.996,34.180,46.875,10.742
1584599720.497,40.527,20.996,34.180,74.219,-6.836
1584599720.501,15.625,13.672,27.344,14.648,33.691
1584599720.505,10.254,11.719,25.391,-21.484,64.453
1584599720.509,33.203,17.578,30.762,27.832,-1.953
1584599720.513,42.480,18.555,32.715,71.777,-2.930
1584599720.517,29.785,20.996,33.691,39.551,4.883
1584599720.520,18.555,18.555,31.250,-6.836,-41.992
1584599720.524,34.180,9.766,23.926,21.484,24.902
1584599720.528,58.594,12.207,22.949,87.402,26.367
1584599720.532,35.156,7.812,25.879,70.801,-4.395
1584599720.536,-4.883,-0.977,25.879,-2.930,46.875
1584599720.540,-4.395,-3.418,26.855,-9.766,101.074
1584599720.544,17.090,3.418,27.832,49.805,95.215
1584599720.548,25.391,1.953,25.391,62.988,30.273
1584599720.552,10.742,-6.836,22.461,5.859,34.668
1584599720.556,13.184,-6.348,22.461,-20.508,58.594
1584599720.560,41.016,-2.930,26.367,41.992,50.293
1584599720.563,49.805,2.441,26.855,79.590,0.488
1584599720.567,27.832,2.930,21.973,25.879,-1.953
1584599720.571,14.160,-2.930,23.438,-10.742,51.758
1584599720.575,41.016,0.977,28.809,33.203,39.551
1584599720.579,55.664,3.906,22.461,81.543,-3.418
1584599720.583,32.715,-1.953,12.207,48.340,2.930
1584599720.587,12.695,-5.371,12.207,-11.230,39.062
1584599720.591,28.320,-2.441,16.602,2.930,52.734
1584599720.595,42.969,-1.953,19.531,65.430,55.176
1584599720.599,34.180,-7.324,19.531,59.570,48.340
1584599720.602,15.137,-7.324,17.090,-15.625,35.645
1584599720.606,11.719,-6.836,18.555,-22.461,19.531
1584599720.610,31.738,-5.371,21.484,49.316,61.523
1584599720.614,36.621,-10.254,21.973,65.430,93.262
1584599720.618,19.531,-13.672,26.855,5.859,70.801
1584599720.622,14.648,-8.301,29.297,-22.949,59.570
1584599720.626,40.527,-8.301,26.367,31.250,27.344
1584599720.630,44.434,0.000,23.438,69.336,-6.836
1584599720.634,13.672,-2.441,15.625,15.137,50.293
1584599720.638,2.930,-12.207,10.254,-35.645,44.434
1584599720.642,29.785,-8.301,15.137,9.766,4.395
1584599720.645,52.734,-9.277,20.508,65.918,2.441
1584599720.649,31.250,-13.672,17.578,37.598,0.000
1584599720.653,1.465,-12.695,14.648,-25.879,3.418
1584599720.657,14.648,-6.348,20.508,-15.137,41.992
1584599720.661,39.062,0.977,21.484,50.781,64.453
1584599720.665,27.832,-1.465,18.066,43.457,15.137
1584599720.669,4.395,-7.812,14.160,-17.578,83.984
1584599720.673,11.719,-6.836,12.207,-31.738,67.383
1584599720.677,34.180,-0.488,18.066,31.738,59.570
1584599720.681,23.926,0.488,21.973,62.988,144.043
1584599720.685,-0.977,-5.859,22.461,5.371,70.801
1584599720.688,3.418,-4.883,21.973,-29.785,12.695
1584599720.692,31.738,1.465,21.973,21.973,35.645
1584599720.696,56.152,4.883,21.484,75.195,7.812
1584599720.700,45.898,6.836,21.484,53.223,17.578
1584599720.704,7.812,-4.395,28.809,-11.230,64.453
1584599720.708,-5.859,-7.324,32.227,-10.254,71.777
1584599720.712,13.184,5.859,34.668,52.246,91.309
1584599720.716,13.672,13.184,36.621,41.992,55.664
1584599720.720,-13.672,3.418,26.855,-25.391,13.184
1584599720.724,-7.324,-3.906,25.879,-13.672,81.543
1584599720.727,15.625,7.812,34.668,57.129,64.453
1584599720.731,6.836,14.648,36.133,61.035,39.551
1584599720.735,-16.602,4.883,35.156,-0.488,34.668
1584599720.739,-19.043,1.953,35.156,-26.855,3.906
1584599720.743,1.953,13.672,32.227,25.879,52.246
1584599720.747,7.324,19.531,33.691,60.547,20.996
1584599720.751,-12.207,14.160,33.691,9.277,10.742
1584599720.755,-13.672,13.184,31.250,-26.367,32.227
1584599720.759,11.230,23.438,30.273,30.762,21.484
1584599720.763,20.020,32.227,33.691,83.984,43.945
1584599720.767,9.766,36.133,41.992,52.246,65.430
1584599720.770,-0.977,35.156,39.062,-2.930,46.875
1584599720.774,9.277,33.203,30.273,16.602,45.410
1584599720.778,30.273,35.645,32.227,77.148,13.672
1584599720.782,27.344,40.527,32.227,66.895,21.973
1584599720.786,10.254,40.039,31.738,4.395,72.754
1584599720.790,12.695,39.062,29.785,-0.488,28.320
1584599720.794,34.180,44.434,30.762,63.965,16.602
1584599720.798,27.832,43.457,35.156,71.777,-1.465
1584599720.802,1.953,44.922,37.598,8.789,-67.871
1584599720.806,1.465,44.922,37.109,-9.766,-46.387
1584599720.810,24.902,46.387,32.715,44.922,47.852
1584599720.813,29.297,45.898,32.227,75.684,6.836
1584599720.817,6.348,39.551,35.645,31.738,28.809
1584599720.821,2.441,36.133,36.621,-8.301,65.430
1584599720.825,29.785,31.738,38.086,34.668,41.016
1584599720.829,41.992,42.480,37.598,89.844,76.172
1584599720.833,20.020,48.340,34.180,54.199,73.242
1584599720.837,1.953,40.527,30.273,-10.254,39.551
1584599720.841,17.578,41.504,30.273,-0.488,64.941
1584599720.845,35.645,45.410,29.785,56.641,43.457
1584599720.849,27.344,44.434,28.809,52.246,18.066
1584599720.852,3.418,38.086,31.250,-11.230,24.902
1584599720.856,12.207,41.016,32.227,-16.602,0.000
1584599720.860,38.086,49.805,30.762,52.246,12.695
1584599720.864,31.250,49.805,29.297,72.754,25.879
1584599720.868,13.672,40.527,31.738,19.043,6.836
1584599720.872,15.625,44.434,31.250,-9.766,14.648
1584599720.876,42.969,61.035,34.668,47.852,43.945
1584599720.880,53.711,62.012,34.668,89.355,41.016
1584599720.884,27.344,48.340,27.344,35.645,-13.184
1584599720.888,8.301,44.922,26.367,-22.949,-0.488
1584599720.892,26.367,54.688,26.855,14.648,59.082
1584599720.895,39.551,56.641,30.273,84.961,99.121
1584599720.899,22.949,53.711,30.273,58.594,79.590
1584599720.903,6.836,52.734,27.344,-8.301,29.297
1584599720.907,22.461,53.711,29.785,3.418,27.832
1584599720.911,49.316,55.176,37.109,66.406,16.602
1584599720.915,37.598,53.223,39.062,68.848,23.926
1584599720.919,-0.488,42.969,26.367,-2.930,27.344
1584599720.923,5.371,39.062,24.414,-20.020,-9.766
1584599720.927,42.969,43.945,24.902,41.504,-45.410
1584599720.931,60.547,46.875,13.184,71.777,-22.949
1584599720.935,55.176,35.645,19.043,39.551,30.273
1584599720.938,32.227,26.855,35.156,0.488,33.691
1584599720.942,15.625,31.250,36.133,20.020,32.715
1584599720.946,17.578,29.785,33.203,59.570,24.902
1584599720.950,10.742,24.414,33.203,30.273,24.902
1584599720.954,0.977,22.461,30.762,-22.949,-10.254
1584599720.958,13.184,19.043,35.156,3.418,-23.438
1584599720.962,30.273,16.113,39.551,68.848,33.203
1584599720.966,15.625,12.695,34.180,50.781,54.199
1584599720.970,-7.812,11.230,31.738,-15.137,88.867
1584599720.974,4.395,9.766,37.109,-12.207,44.922
1584599720.977,29.785,9.277,42.480,55.664,13.184
1584599720.981,32.715,9.277,43.457,69.336,-18.555
1584599720.985,12.695,6.348,40.039,12.695,-28.320
1584599720.989,14.160,5.859,38.086,-3.418,28.320
1584599720.993,41.992,14.160,39.551,59.082,-13.184
1584599720.997,47.363,15.137,39.062,83.984,-29.785
1584599721.001,27.344,9.277,36.621,28.809,12.695
1584599721.005,17.578,8.789,32.715,-7.324,19.043
1584599721.009,34.668,11.719,35.156,41.504,9.766
1584599721.013,47.363,16.602,40.039,91.797,33.203
1584599721.017,25.879,13.184,38.574,52.246,48.340
1584599721.020,4.883,3.418,37.109,-8.301,4.883
1584599721.024,28.809,7.324,39.551,15.137,-3.906
1584599721.028,48.340,18.066,37.598,79.590,42.480
1584599721.032,36.621,23.926,36.133,67.383,33.691
1584599721.036,20.996,20.996,33.691,-4.395,11.719
1584599721.040,22.949,17.578,32.715,-10.742,27.832
1584599721.044,40.039,19.043,36.621,60.547,68.848
1584599721.048,30.273,17.578,38.086,73.242,101.562
1584599721.052,6.348,18.066,33.691,7.324,69.824
1584599721.056,13.672,21.484,33.203,-13.184,21.973
1584599721.060,38.086,24.414,37.598,48.340,-6.348
1584599721.063,34.668,20.996,35.645,81.055,53.711
1584599721.067,13.672,16.113,30.273,24.414,38.574
1584599721.071,8.789,15.625,28.320,-25.879,-40.039
1584599721.075,30.762,19.531,33.691,20.508,3.418
1584599721.079,38.574,21.973,33.203,76.660,34.668
1584599721.083,17.578,18.555,31.250,42.480,46.875
1584599721.087,3.906,16.602,32.715,-21.484,102.051
1584599721.091,22.949,21.484,33.203,-6.348,57.617
1584599721.095,43.457,27.344,29.785,63.477,6.836
1584599721.099,33.203,24.414,28.320,54.199,-2.930
1584599721.102,14.648,15.625,27.344,-14.160,-16.602
1584599721.106,22.461,15.625,25.879,-17.578,12.207
1584599721.110,47.363,20.996,26.367,47.852,23.926
1584599721.114,44.434,21.973,25.391,66.406,20.020
1584599721.118,20.020,22.461,26.855,10.742,56.152
1584599721.122,14.648,20.996,23.926,-21.973,30.762
1584599721.126,40.039,25.879,23.438,26.367,-5.371
1584599721.130,48.828,30.762,30.273,67.383,6.348
1584599721.134,24.902,23.926,24.902,22.949,24.414
1584599721.138,15.625,24.902,20.996,-22.949,19.531
1584599721.142,34.668,30.273,26.855,18.555,27.832
1584599721.145,46.387,25.879,25.879,71.289,71.777
1584599721.149,32.715,21.973,23.926,48.828,72.754
1584599721.153,15.625,22.461,24.902,-3.906,56.152
1584599721.157,32.715,29.785,29.297,10.254,57.617
1584599721.161,55.176,31.738,34.668,74.707,57.129
1584599721.165,41.992,32.227,30.762,68.848,56.152
1584599721.169,21.484,28.320,28.809,4.395,18.555
1584599721.173,32.227,25.391,32.715,-8.789,-9.766
1584599721.177,55.176,32.715,30.762,49.316,-10.254
1584599721.181,58.105,29.297,26.855,75.684,-15.137
1584599721.185,36.133,19.531,23.926,19.531,32.715
1584599721.188,30.273,22.949,20.020,-14.160,29.785
1584599721.192,53.711,30.273,24.902,38.574,35.645
1584599721.196,61.523,28.320,32.227,86.914,57.129
1584599721.200,38.574,24.902,29.297,44.922,33.691
1584599721.204,16.113,20.996,28.809,-17.578,29.297
1584599721.208,32.715,20.020,34.668,12.207,5.371
1584599721.212,51.270,24.902,37.109,80.078,11.230
1584599721.216,30.762,20.508,34.180,58.105,-10.254
1584599721.220,8.301,15.137,34.180,-4.883,36.621
1584599721.224,22.461,23.438,36.133,11.719,71.289
1584599721.227,48.828,30.762,34.180,75.684,41.016
1584599721.231,40.039,25.879,30.762,74.707,75.195
1584599721.235,15.137,24.414,34.180,13.184,45.410
1584599721.239,20.996,29.785,42.480,-2.930,41.504
1584599721.243,40.527,28.320,42.969,57.129,37.598
1584599721.247,37.598,26.855,37.109,84.473,6.836
1584599721.251,15.137,27.832,27.344,26.367,12.695
1584599721.255,9.277,23.926,27.344,-15.137,-27.832
1584599721.259,30.762,23.926,34.668,31.250,-35.156
1584599721.263,40.039,27.832,33.203,74.219,-0.977
1584599721.267,22.949,26.367,30.273,40.527,10.742
1584599721.270,7.324,22.949,30.273,-9.766,10.742
1584599721.274,24.414,31.738,30.762,10.742,30.762
1584599721.278,50.293,39.062,36.621,78.125,36.621
1584599721.282,42.480,32.715,33.203,63.965,-2.930
1584599721.286,17.578,28.809,21.484,-5.371,41.504
1584599721.290,29.785,31.250,23.438,-6.836,68.848
1584599721.294,56.152,37.598,26.367,55.176,-18.555
1584599721.298,47.363,40.527,25.391,72.266,-10.742
1584599721.302,19.043,34.180,22.461,8.301,7.812
1584599721.306,16.113,29.297,18.066,-20.020,62.012
1584599721.310,42.969,35.645,19.531,43.457,20.020
1584599721.313,50.293,36.133,20.020,83.496,-56.152
1584599721.317,28.809,34.180,20.996,36.133,-17.578
1584599721.321,22.949,35.156,21.484,-19.531,-24.902
1584599721.325,43.945,37.109,20.020,11.230,-21.973
1584599721.329,54.199,42.480,21.973,70.312,21.973
1584599721.333,33.691,39.551,24.414,42.969,16.113
1584599721.337,16.602,38.086,28.320,-13.184,23.438
1584599721.341,30.762,38.574,27.344,5.371,50.781
1584599721.345,53.223,32.227,26.367,63.965,46.875
1584599721.349,42.969,25.879,26.367,61.523,32.715
1584599721.352,13.184,27.832,23.438,-6.348,46.875
1584599721.356,27.344,33.691,28.320,-17.578,88.379
1584599721.360,55.176,36.621,35.645,55.176,29.297
1584599721.364,42.969,36.621,30.762,75.195,20.508
1584599721.368,18.555,32.227,23.438,13.672,47.852
1584599721.372,22.461,31.738,25.879,-14.648,33.691
1584599721.376,44.434,33.691,27.832,39.551,27.832
1584599721.380,46.387,34.668,28.809,78.613,6.836
1584599721.384,21.973,33.203,28.809,34.180,3.418
1584599721.388,11.719,29.297,25.879,-19.043,9.766
1584599721.392,31.250,31.738,25.391,12.695,-23.926
1584599721.395,50.293,35.645,28.320,75.195,-33.203
1584599721.399,37.109,36.621,32.227,53.711,20.996
1584599721.403,12.207,32.227,27.344,-7.812,30.273
1584599721.407,25.879,30.762,25.879,1.953,-9.766
1584599721.411,44.922,32.715,32.227,65.918,36.621
1584599721.415,32.715,25.879,33.203,66.895,106.445
1584599721.419,7.324,24.414,30.762,-2.441,72.266
1584599721.423,13.184,29.785,31.250,-16.113,68.848
1584599721.427,41.504,33.203,38.086,47.852,65.430
1584599721.431,52.734,32.715,37.598,81.543,52.246
1584599721.435,36.621,32.227,25.391,44.434,60.547
1584599721.438,16.113,35.156,25.391,-3.906,10.742
1584599721.442,8.789,37.109,28.320,11.230,-32.227
1584599721.446,13.672,37.598,30.273,56.641,12.695
1584599721.450,6.836,36.133,32.227,33.203,44.922
1584599721.454,-1.465,28.809,29.785,-14.160,54.688
1584599721.458,28.320,30.273,32.227,11.230,30.273
1584599721.462,48.340,33.203,31.738,69.336,-3.418
1584599721.466,30.273,31.250,27.832,62.500,76.660
1584599721.470,11.230,32.715,23.926,-1.953,61.035
1584599721.474,25.879,38.574,26.367,-0.488,-21.484
1584599721.477,49.805,40.039,29.297,69.336,56.152
1584599721.481,41.016,33.203,25.391,74.707,-0.977
1584599721.485,11.230,30.762,22.949,10.254,-61.035
1584599721.489,9.277,33.691,22.949,-15.137,-19.531
1584599721.493,35.156,41.016,27.344,40.039,21.973
1584599721.497,43.457,41.504,31.250,74.219,40.527
1584599721.501,22.949,32.227,30.273,21.973,29.785
1584599721.505,13.184,28.320,30.273,-24.902,0.488
1584599721.509,31.738,34.668,31.250,20.508,8.301
1584599721.513,43.945,34.668,32.715,79.102,13.184
1584599721.517,23.926,33.203,30.273,45.410,34.668
1584599721.520,6.348,32.715,29.297,-8.789,84.961
1584599721.524,26.855,33.691,33.203,14.160,68.359
1584599721.528,44.922,35.156,29.785,69.824,20.996
1584599721.532,32.227,31.738,25.879,60.059,19.043
1584599721.536,13.672,27.832,26.855,-2.930,56.641
1584599721.540,25.391,28.320,28.320,-7.812,6.836
1584599721.544,51.758,34.668,34.180,56.641,-29.785
1584599721.548,52.734,38.574,34.180,68.359,16.602
1584599721.552,20.020,30.273,27.832,3.418,0.488
1584599721.556,3.418,23.438,25.879,-26.855,11.230
1584599721.560,32.715,28.809,24.902,28.809,28.809
1584599721.563,44.434,30.273,22.949,65.430,-18.066
1584599721.567,20.020,25.391,25.879,16.113,-6.836
1584599721.571,10.254,26.855,26.367,-27.832,40.039
1584599721.575,27.832,35.645,24.414,11.719,51.758
1584599721.579,45.410,45.898,28.809,75.195,63.965
1584599721.583,30.273,42.480,31.250,49.805,41.016
1584599721.587,8.301,29.785,25.879,-13.672,5.371
1584599721.591,27.344,30.273,29.785,4.883,58.594
1584599721.595,42.969,32.227,30.273,57.617,17.090
1584599721.599,28.809,29.785,25.879,50.293,-10.254
1584599721.602,10.742,24.902,22.949,-1.953,45.898
1584599721.606,25.879,25.879,24.902,-8.301,17.090
1584599721.610,52.734,28.809,32.227,54.199,-34.180
1584599721.614,43.457,25.391,30.762,77.637,-18.066
1584599721.618,16.113,21.484,24.902,17.090,31.738
1584599721.622,18.066,21.973,28.320,-16.113,69.824
1584599721.626,49.805,22.949,33.203,38.574,51.270
1584599721.630,54.199,24.414,33.203,82.031,50.781
1584599721.634,23.926,29.297,30.273,39.551,78.125
1584599721.638,11.719,30.762,26.367,-25.391,6.836
1584599721.642,37.109,33.691,26.855,3.906,-37.598
1584599721.645,48.828,30.762,28.320,71.777,27.344
1584599721.649,26.855,22.949,26.367,49.805,15.625
1584599721.653,8.789,24.902,23.926,-7.324,-1.465
1584599721.657,26.855,29.297,29.785,7.812,-4.883
1584599721.661,57.129,30.273,36.621,77.637,13.672
1584599721.665,44.434,28.809,31.738,69.336,20.996
1584599721.669,8.301,27.344,26.855,-7.812,24.414
1584599721.673,16.602,29.785,26.855,-20.020,66.406
1584599721.677,48.828,38.574,28.320,47.363,81.543
1584599721.681,49.805,41.992,33.203,76.172,59.570
1584599721.685,22.461,37.109,33.691,21.973,28.320
1584599721.688,13.184,36.133,27.344,-17.090,35.156
1584599721.692,37.598,38.086,29.297,24.414,32.227
1584599721.696,48.340,35.156,29.785,67.383,34.668
1584599721.700,22.461,28.809,21.973,30.273,2.930
1584599721.704,6.348,27.344,27.832,-17.578,24.902
1584599721.708,30.762,32.227,33.691,12.695,75.195
1584599721.712,49.316,35.645,28.320,66.406,7.812
1584599721.716,33.203,36.621,30.273,49.316,-1.953
1584599721.720,10.254,33.691,29.297,-12.207,25.391
1584599721.724,15.625,29.785,29.297,-9.766,-2.441
1584599721.727,38.086,32.715,33.691,54.199,-22.461
1584599721.731,40.039,33.691,31.738,58.105,4.395
1584599721.735,25.391,31.738,29.785,2.441,53.711
1584599721.739,27.344,37.109,33.203,-12.695,54.199
1584599721.743,40.039,41.992,35.645,38.574,12.207
1584599721.747,41.992,41.504,34.180,73.242,63.965
1584599721.751,22.461,35.645,29.785,28.320,99.609
1584599721.755,12.207,29.785,28.320,-15.625,23.926
1584599721.759,41.016,34.668,30.762,24.414,-22.461
1584599721.763,60.547,40.527,27.832,71.289,-3.906
1584599721.767,35.156,31.738,26.367,37.598,35.156
1584599721.770,12.695,20.996,28.809,-20.996,84.473
1584599721.774,31.250,24.902,27.344,-4.883,47.363
1584599721.778,49.805,33.691,26.855,56.152,28.320
1584599721.782,41.992,29.297,29.785,51.758,88.379
1584599721.786,14.648,24.902,31.738,-8.301,68.848
1584599721.790,17.578,27.832,29.785,-10.254,45.898
1584599721.794,44.434,26.855,26.367,56.641,15.625
1584599721.798,41.504,23.438,26.855,70.801,-4.395
1584599721.802,17.578,20.508,28.320,13.184,32.715
1584599721.806,17.578,20.996,26.855,-15.137,39.062
1584599721.810,41.016,20.996,28.320,38.086,12.695
1584599721.813,44.922,20.508,28.320,80.078,28.320
1584599721.817,18.555,15.625,29.297,34.668,35.156
1584599721.821,9.277,18.555,31.250,-13.672,49.316
1584599721.825,31.738,25.879,27.344,20.996,52.246
1584599721.829,59.082,27.832,28.320,83.008,10.742
1584599721.833,58.594,24.902,30.273,61.523,-10.254
1584599721.837,15.625,20.020,24.902,-22.461,-20.020
1584599721.841,-5.859,20.020,23.926,-23.926,19.043
1584599721.845,14.160,21.973,24.414,48.828,37.109
1584599721.849,19.531,26.367,26.855,58.594,1.465
1584599721.852,-1.465,22.461,27.832,-0.977,4.395
1584599721.856,-3.418,16.602,22.461,-21.973,41.992
1584599721.860,19.043,16.113,25.391,35.645,54.688
1584599721.864,17.090,12.207,25.879,59.570,33.203
1584599721.868,-0.977,9.277,22.461,1.953,4.395
1584599721.872,-0.977,12.695,26.855,-32.227,20.020
1584599721.876,22.949,20.020,29.297,12.695,41.016
1584599721.880,30.273,22.461,24.414,52.246,11.719
1584599721.884,10.742,19.043,21.484,16.113,-41.992
1584599721.888,1.465,15.625,21.484,-27.832,-26.367
1584599721.892,26.855,16.113,24.902,12.207,53.223
1584599721.895,48.828,13.672,25.391,74.707,58.105
1584599721.899,33.691,9.766,19.531,53.711,42.969
1584599721.903,14.160,14.648,20.996,-6.348,-5.859
1584599721.907,32.227,18.066,29.297,8.789,-17.090
1584599721.911,52.734,15.137,27.344,72.754,39.062
1584599721.915,34.668,14.648,24.902,70.801,89.355
1584599721.919,8.301,13.184,23.438,11.230,41.992
1584599721.923,27.344,6.836,27.344,6.836,17.578
1584599721.927,74.219,11.230,33.203,87.402,62.988
1584599721.931,56.641,23.926,25.879,94.727,34.668
1584599721.935,0.000,20.996,19.531,1.953,34.668
1584599721.938,-4.395,20.020,22.461,-36.133,96.680
1584599721.942,28.320,26.367,22.949,22.461,63.477
1584599721.946,37.598,33.203,19.043,66.406,33.691
1584599721.950,14.648,38.574,18.555,25.391,66.895
1584599721.954,-2.441,27.832,16.602,-32.227,8.789
1584599721.958,5.371,30.273,6.348,-21.484,-17.090
1584599721.962,15.625,44.434,1.465,33.203,34.180
1584599721.966,8.301,39.062,2.441,19.531,-33.691
1584599721.970,-9.277,41.504,2.441,-51.758,-62.500
1584599721.974,11.719,54.199,10.254,-42.969,23.438
1584599721.977,37.598,57.129,15.625,28.809,55.664
1584599721.981,16.113,44.922,5.371,32.715,30.273
1584599721.985,0.977,42.480,-0.977,-26.367,28.320
1584599721.989,12.695,49.316,1.465,-43.945,41.016
1584599721.993,41.992,55.664,3.906,16.113,57.617
1584599721.997,49.316,55.176,6.348,48.340,63.477
1584599722.001,16.602,53.223,6.836,1.953,42.480
1584599722.005,4.883,57.617,9.277,-31.250,23.438
1584599722.009,30.273,61.523,14.160,17.578,25.879
1584599722.013,38.086,56.641,16.602,65.430,4.883
1584599722.017,18.555,56.641,20.020,33.203,16.113
1584599722.020,-3.418,57.129,19.531,-20.508,8.789
1584599722.024,10.254,52.246,18.555,0.000,15.625
1584599722.028,35.156,52.246,22.949,64.453,26.855
1584599722.032,31.738,54.199,24.414,57.129,32.227
1584599722.036,9.277,52.734,22.949,-5.859,31.738
1584599722.040,14.160,53.711,26.367,-13.672,11.719
1584599722.044,42.969,63.477,33.203,54.688,8.301
1584599722.048,41.504,64.941,31.250,71.777,18.066
1584599722.052,13.672,56.641,24.902,5.371,33.691
1584599722.056,11.719,55.664,24.902,-23.926,12.695
1584599722.060,42.969,62.500,32.227,28.320,-23.438
1584599722.063,48.828,62.500,34.668,71.777,-8.789
1584599722.067,23.438,57.617,28.320,33.691,11.719
1584599722.071,10.742,54.688,29.785,-17.578,26.855
1584599722.075,31.250,57.129,35.156,16.602,69.336
1584599722.079,47.363,61.523,35.645,75.195,9.766
1584599722.083,28.809,58.594,31.250,47.852,-37.109
1584599722.087,8.789,54.199,28.320,-15.625,-4.883
1584599722.091,26.855,58.594,31.738,-0.488,20.508
1584599722.095,53.223,65.430,31.250,64.941,39.551
1584599722.099,40.527,57.129,30.273,63.965,31.738
1584599722.102,11.230,54.688,28.809,-5.371,19.531
1584599722.106,20.020,65.430,34.180,-20.020,9.277
1584599722.110,44.434,69.336,40.039,46.875,0.488
1584599722.114,32.715,61.035,33.203,68.359,40.039
1584599722.118,2.930,56.152,28.320,8.789,68.848
1584599722.122,0.977,58.105,32.227,-25.879,70.312
1584599722.126,32.715,64.941,38.574,27.832,62.500
1584599722.130,46.875,67.871,35.156,73.242,30.762
1584599722.134,26.855,64.941,33.203,30.762,48.340
1584599722.138,13.672,66.406,36.621,-20.020,85.938
1584599722.142,28.809,67.871,38.574,11.719,90.332
1584599722.145,42.969,66.895,38.086,66.895,44.434
1584599722.149,31.250,67.383,37.109,46.387,46.875
1584599722.153,5.859,65.430,35.156,-12.695,47.363
1584599722.157,11.719,65.430,33.691,-7.812,60.059
1584599722.161,41.992,69.336,36.133,55.664,44.922
1584599722.165,40.039,66.406,36.133,59.570,34.668
1584599722.169,13.672,58.594,35.156,-2.930,28.320
1584599722.173,18.066,59.570,38.574,-19.531,41.504
1584599722.177,45.898,65.430,40.527,40.527,41.504
1584599722.181,41.016,63.965,39.062,70.801,35.156
1584599722.185,21.484,60.059,43.457,22.461,78.613
1584599722.188,15.625,59.570,43.945,-16.113,46.387
1584599722.192,25.879,55.176,33.691,23.438,-0.488
1584599722.196,33.691,54.688,30.273,67.383,47.363
1584599722.200,19.043,52.734,32.715,31.738,2.930
1584599722.204,10.742,50.293,30.762,-26.855,-22.461
1584599722.208,30.762,54.199,31.738,-5.371,17.578
1584599722.212,45.898,60.059,36.133,55.176,42.480
1584599722.216,33.203,56.152,34.180,45.410,33.203
1584599722.220,10.742,48.340,27.344,-14.160,85.449
1584599722.224,15.137,49.316,28.320,-13.672,109.375
1584599722.227,44.434,53.223,32.227,60.059,59.570
1584599722.231,39.062,49.316,29.297,72.754,43.945
1584599722.235,9.277,39.551,28.809,5.371,26.367
1584599722.239,12.695,42.480,32.227,-18.555,7.324
1584599722.243,45.410,50.293,33.691,37.598,-2.930
1584599722.247,54.199,47.852,36.621,72.266,-0.488
1584599722.251,26.367,48.340,39.551,22.461,10.742
1584599722.255,9.277,54.199,31.250,-27.344,42.969
1584599722.259,26.855,55.176,24.902,14.648,30.762
1584599722.263,37.598,53.223,22.949,67.871,31.250
1584599722.267,19.531,46.387,20.996,37.109,39.551
1584599722.270,2.930,37.598,26.855,-17.578,26.367
1584599722.274,21.973,36.621,34.668,2.441,28.809
1584599722.278,49.316,39.062,32.715,65.918,36.133
1584599722.282,36.133,39.062,27.832,54.199,44.434
1584599722.286,6.836,38.574,28.320,-11.230,38.086
1584599722.290,13.672,38.086,30.273,-15.137,26.855
1584599722.294,41.504,42.480,34.668,55.664,31.738
1584599722.298,43.945,37.109,37.109,82.031,6.836
1584599722.302,6.836,23.926,31.738,7.812,0.000
1584599722.306,-16.113,22.461,25.879,-38.086,30.273
1584599722.310,12.695,27.344,29.785,20.020,30.273
1584599722.313,33.691,26.855,33.203,64.453,15.137
1584599722.317,11.719,21.973,33.691,23.438,24.414
1584599722.321,0.488,22.461,32.715,-24.414,57.129
1584599722.325,24.902,29.785,36.621,12.207,43.945
1584599722.329,40.039,27.832,32.227,69.824,10.742
1584599722.333,29.785,25.879,27.832,47.363,19.043
1584599722.337,5.859,24.414,28.320,-18.066,30.762
1584599722.341,18.066,19.043,27.344,-10.254,22.461
1584599722.345,37.109,18.066,26.855,51.758,7.812
1584599722.349,20.020,18.555,23.926,51.270,32.715
1584599722.352,-0.977,13.672,21.484,-11.719,10.254
1584599722.356,7.812,13.184,24.414,-22.461,-3.906
1584599722.360,30.762,12.207,29.297,41.016,42.969
1584599722.364,31.738,10.254,27.832,64.941,24.414
1584599722.368,10.254,8.789,22.461,7.812,-29.297
1584599722.372,6.348,6.836,21.484,-32.715,-21.973
1584599722.376,33.203,13.672,24.414,20.020,29.785
1584599722.380,49.805,14.648,23.438,75.195,35.156
1584599722.384,32.715,2.441,25.391,35.645,31.738
1584599722.388,15.625,-0.977,27.832,-22.949,13.672
1584599722.392,33.203,7.812,27.832,6.836,19.043
1584599722.395,41.992,7.324,29.785,74.707,73.242
1584599722.399,25.391,6.348,32.715,57.617,70.801
1584599722.403,8.301,4.883,29.785,-10.254,24.902
1584599722.407,19.043,0.977,20.996,-6.836,26.855
1584599722.411,43.457,1.465,19.043,55.664,-9.766
1584599722.415,36.621,0.000,20.996,60.547,7.812
1584599722.419,14.160,-7.324,18.555,-2.930,26.367
1584599722.423,20.508,-7.812,21.973,-25.391,6.348
1584599722.427,43.457,-1.953,22.949,33.691,7.812
1584599722.431,48.340,0.000,20.508,59.570,57.129
1584599722.435,24.902,0.488,24.902,9.277,60.059
1584599722.438,11.719,-6.348,21.973,-26.367,4.883
1584599722.442,36.621,-9.277,18.066,14.160,-17.578
1584599722.446,51.758,-4.395,21.973,69.336,-9.277
1584599722.450,35.156,-1.953,18.555,36.133,22.949
1584599722.454,19.531,-3.906,17.090,-22.461,20.020
1584599722.458,38.086,-1.953,19.043,5.859,-1.953
1584599722.462,53.223,-1.465,19.531,69.336,20.508
1584599722.466,39.062,-6.836,21.484,54.688,61.035
1584599722.470,21.484,-7.324,22.949,-8.789,37.109
1584599722.474,26.855,0.488,23.926,-3.418,41.016
1584599722.477,44.434,-1.953,25.391,52.734,50.293
1584599722.481,37.598,-11.230,26.367,56.152,4.883
1584599722.485,13.184,-16.113,24.414,7.324,-27.344
1584599722.489,18.066,-12.695,23.926,-13.672,35.645
1584599722.493,44.922,-6.348,24.902,36.621,13.672
1584599722.497,52.734,-6.836,24.902,77.148,-12.207
1584599722.501,30.762,-8.789,24.414,31.738,33.203
1584599722.505,12.207,-12.207,21.973,-15.625,30.273
1584599722.509,39.551,-10.254,19.043,22.949,43.457
1584599722.513,49.805,-2.441,20.020,77.637,43.945
1584599722.517,17.090,-2.930,22.461,49.316,26.855
1584599722.520,4.883,-8.301,20.508,-13.672,48.828
1584599722.524,25.391,-4.395,26.855,9.277,34.668
1584599722.528,41.016,3.906,34.668,79.102,16.602
1584599722.532,26.855,-3.418,30.273,67.383,8.789
1584599722.536,10.742,-12.695,23.438,-0.488,30.762
1584599722.540,22.949,-9.277,20.020,-15.137,47.852
1584599722.544,48.340,-0.977,20.508,49.316,7.812
1584599722.548,43.945,1.953,20.508,76.172,-0.488
1584599722.552,11.719,0.977,17.090,16.602,-45.898
1584599722.556,7.324,4.883,16.113,-17.578,-80.078
1584599722.560,40.039,8.301,21.484,41.992,3.906
1584599722.563,55.664,11.719,26.855,92.773,68.359
1584599722.567,29.297,8.301,19.531,47.363,52.734
1584599722.571,14.648,0.977,10.742,-11.230,32.227
1584599722.575,28.809,3.418,16.602,21.484,17.090
1584599722.579,36.621,8.301,18.066,80.566,-16.113
1584599722.583,27.344,3.906,13.184,46.387,-10.254
1584599722.587,5.859,-0.488,13.184,-21.484,33.203
1584599722.591,14.648,5.371,13.672,-3.906,12.207
1584599722.595,40.039,10.254,11.719,65.430,29.297
1584599722.599,40.039,11.719,13.672,71.289,42.480
1584599722.602,21.973,13.184,13.672,8.789,29.785
1584599722.606,25.391,14.648,10.742,-0.977,65.918
1584599722.610,62.500,18.066,10.254,79.590,81.055
1584599722.614,67.871,21.973,11.719,113.770,53.711
1584599722.618,16.602,18.555,11.719,29.297,40.527
1584599722.622,-16.113,15.137,13.184,-33.691,5.859
1584599722.626,10.742,16.602,11.719,16.602,5.859
1584599722.630,35.645,18.555,14.160,72.754,42.480
1584599722.634,20.996,17.578,19.531,49.316,28.809
1584599722.638,-1.953,16.113,19.043,-4.883,27.344
1584599722.642,13.672,25.391,17.578,10.742,32.227
1584599722.645,32.715,26.367,18.555,69.824,52.246
1584599722.649,20.996,20.508,17.578,58.105,45.898
1584599722.653,10.742,19.531,13.184,3.418,33.203
1584599722.657,26.855,24.902,15.625,11.719,77.148
1584599722.661,49.316,32.227,18.555,71.777,37.598
1584599722.665,39.551,34.180,15.137,78.125,11.230
1584599722.669,10.742,30.762,15.137,20.508,48.340
1584599722.673,14.160,32.715,16.113,-5.371,36.133
1584599722.677,45.898,42.480,20.020,54.199,37.109
1584599722.681,48.828,45.410,21.973,95.215,67.871
1584599722.685,15.625,40.039,17.578,37.598,60.547
1584599722.688,4.883,37.109,19.531,-7.812,38.574
1584599722.692,27.832,44.434,28.809,39.551,62.012
1584599722.696,41.992,42.969,29.785,91.309,54.199
1584599722.700,29.785,37.109,22.949,51.758,22.461
1584599722.704,17.090,38.086,19.531,-10.254,41.992
1584599722.708,31.738,42.480,21.484,16.113,51.270
1584599722.712,47.363,41.504,23.438,81.055,19.043
1584599722.716,32.715,34.180,23.438,66.406,18.555
1584599722.720,13.184,33.691,24.414,0.488,2.441
1584599722.724,22.949,40.527,24.902,-2.441,-16.113
1584599722.727,42.480,43.457,25.879,61.523,-5.859
1584599722.731,39.551,43.457,26.855,81.543,14.648
1584599722.735,17.578,43.945,25.391,21.973,15.625
1584599722.739,14.160,45.898,23.926,-10.254,-0.977
1584599722.743,38.574,48.828,22.461,41.504,-33.691
1584599722.747,43.457,44.434,19.043,79.102,-20.996
1584599722.751,21.973,45.898,24.902,36.621,55.176
1584599722.755,10.742,52.246,29.297,-7.324,63.965
1584599722.759,25.879,50.781,20.996,24.414,23.926
1584599722.763,36.621,48.340,19.043,67.383,32.227
1584599722.767,22.949,49.805,21.973,45.898,26.367
1584599722.770,6.348,52.734,22.949,-3.418,26.855
1584599722.774,27.832,51.270,23.926,12.695,-3.906
1584599722.778,58.105,52.246,28.809,76.172,-56.641
1584599722.782,51.758,50.781,27.832,74.707,-40.039
1584599722.786,30.273,46.875,21.484,12.207,-11.719
1584599722.790,24.414,46.387,25.879,-1.465,28.320
1584599722.794,38.574,51.758,30.762,62.988,25.879
1584599722.798,37.109,41.992,25.391,78.613,24.414
1584599722.802,9.277,31.738,22.461,15.625,38.086
1584599722.806,4.883,39.062,25.879,-22.461,12.207
1584599722.810,31.738,47.363,26.855,24.414,33.203
1584599722.813,40.527,45.898,26.367,68.848,57.129
1584599722.817,19.531,38.086,25.879,33.203,24.414
1584599722.821,4.395,32.715,26.855,-19.531,22.949
1584599722.825,28.320,33.691,27.344,10.742,77.148
1584599722.829,48.828,40.527,28.320,75.195,65.918
1584599722.833,30.273,37.109,28.320,53.223,17.090
1584599722.837,13.184,32.227,26.855,-9.766,12.695
1584599722.841,23.926,34.668,28.320,4.395,28.809
1584599722.845,41.504,28.809,25.879,65.430,62.012
1584599722.849,36.133,23.926,24.414,62.012,49.316
1584599722.852,12.207,24.902,26.367,-7.324,29.297
1584599722.856,12.695,29.785,28.809,-24.902,-30.762
1584599722.860,33.691,28.320,30.273,40.527,-24.902
1584599722.864,37.598,26.855,30.762,69.824,-2.930
1584599722.868,17.090,29.785,28.320,16.113,30.273
1584599722.872,8.789,30.273,30.273,-21.973,83.496
1584599722.876,34.668,33.691,28.809,24.414,43.457
1584599722.880,51.758,40.039,25.879,70.312,22.461
1584599722.884,27.832,35.645,24.414,31.250,13.672
1584599722.888,11.719,22.949,26.855,-20.020,51.270
1584599722.892,30.273,23.438,32.715,12.207,112.793
1584599722.895,51.758,34.668,34.668,71.777,59.570
1584599722.899,38.574,33.691,37.109,62.012,34.180
1584599722.903,15.137,22.461,35.156,12.207,33.203
1584599722.907,21.973,26.367,32.227,15.137,39.551
1584599722.911,26.855,36.133,31.738,49.805,40.527
1584599722.915,11.719,30.273,32.227,37.109,31.250
1584599722.919,-6.348,20.996,30.273,-13.672,19.531
1584599722.923,-3.418,26.367,28.809,-31.738,-38.086
1584599722.927,12.695,30.762,26.855,16.602,-15.625
1584599722.931,15.625,27.344,20.996,44.922,23.926
1584599722.935,-7.812,29.785,18.555,-4.883,-25.391
1584599722.938,-11.719,33.691,23.438,-40.039,-26.367
1584599722.942,10.742,30.762,26.367,2.441,-12.695
1584599722.946,15.137,29.785,23.438,49.316,-6.836
1584599722.950,2.930,27.832,27.832,21.973,44.922
1584599722.954,-10.742,25.391,25.391,-37.598,81.543
1584599722.958,1.465,28.809,22.461,-20.020,54.199
1584599722.962,25.879,36.133,28.320,51.270,35.645
1584599722.966,19.043,33.203,27.344,53.223,66.406
1584599722.970,0.488,26.855,24.414,-11.719,-1.953
1584599722.974,9.277,30.273,20.508,-16.602,-25.879
1584599722.977,35.156,39.551,20.996,56.152,51.270
1584599722.981,36.133,38.086,22.949,68.848,30.273
1584599722.985,7.812,29.785,21.484,3.906,67.871
1584599722.989,5.859,28.320,22.949,-22.949,97.168
1584599722.993,31.738,28.809,28.320,32.715,43.945
1584599722.997,41.016,31.250,31.738,73.242,5.859
1584599723.001,21.973,24.902,26.855,24.902,34.180
1584599723.005,12.695,21.973,24.902,-25.391,53.223
1584599723.009,40.527,36.621,33.691,24.414,69.336
1584599723.013,50.781,42.969,36.621,86.914,88.379
1584599723.017,27.344,36.621,27.344,52.246,55.176
1584599723.020,13.184,30.762,25.879,-10.254,40.527
1584599723.024,21.973,36.133,26.367,2.441,31.250
1584599723.028,43.457,43.457,25.879,64.453,35.645
1584599723.032,36.133,34.668,24.902,63.477,2.930
1584599723.036,8.789,30.273,25.391,-2.930,27.344
1584599723.040,18.555,36.133,30.762,-15.137,37.598
1584599723.044,48.340,36.621,30.273,48.828,17.578
1584599723.048,43.457,33.691,24.414,64.941,32.227
1584599723.052,16.602,33.691,22.949,6.348,29.785
1584599723.056,2.930,35.156,24.414,-20.508,-5.859
1584599723.060,24.902,41.992,30.273,36.133,-16.113
1584599723.063,38.574,42.480,32.227,85.449,37.109
1584599723.067,13.184,33.203,24.902,36.621,40.039
1584599723.071,6.348,29.785,20.996,-22.949,16.113
1584599723.075,27.832,32.715,27.832,12.207,42.969
1584599723.079,39.062,35.156,33.203,71.289,34.668
1584599723.083,24.414,33.691,34.180,50.293,4.883
1584599723.087,6.348,33.691,31.738,-8.301,35.156
1584599723.091,18.066,36.621,31.250,-1.953,16.113
1584599723.095,47.363,39.551,35.645,62.988,-3.418
1584599723.099,44.922,38.086,34.668,68.359,-10.254
1584599723.102,15.137,30.762,31.250,1.953,8.301
1584599723.106,15.137,30.762,28.809,-18.555,25.391
1584599723.110,36.621,29.297,27.832,46.387,45.898
1584599723.114,34.180,32.715,30.273,77.637,-12.207
1584599723.118,9.766,30.273,30.762,26.855,27.344
1584599723.122,7.324,33.691,33.691,-4.883,104.980
1584599723.126,30.273,44.434,31.250,36.133,48.828
1584599723.130,40.527,40.039,29.297,78.613,27.832
1584599723.134,27.832,34.180,32.227,40.039,13.672
1584599723.138,10.742,26.367,28.809,-24.902,-9.766
1584599723.142,25.879,26.855,31.738,5.859,-1.953
1584599723.145,41.992,33.203,32.715,77.148,50.781
1584599723.149,27.832,31.250,30.273,61.523,83.984
1584599723.153,5.859,25.391,30.273,-7.324,64.453
1584599723.157,16.113,28.320,28.320,-7.812,30.273
1584599723.161,38.574,35.156,29.297,55.664,42.969
1584599723.165,32.227,27.344,31.738,68.359,99.609
1584599723.169,6.348,20.508,30.273,9.277,64.941
1584599723.173,9.277,24.902,29.785,-15.137,-4.395
1584599723.177,39.551,24.414,32.227,42.480,-2.930
1584599723.181,45.410,22.949,31.738,68.848,29.297
1584599723.185,20.508,25.879,30.273,14.648,54.688
1584599723.188,13.184,27.832,29.785,-20.508,85.938
1584599723.192,31.738,31.250,32.227,26.367,30.273
1584599723.196,39.062,31.738,33.203,76.172,-12.207
1584599723.200,27.832,28.320,33.203,47.363,26.367
1584599723.204,12.207,27.344,35.645,-9.766,56.152
1584599723.208,29.785,25.879,35.156,8.789,57.129
1584599723.212,55.176,26.367,30.273,73.730,31.738
1584599723.216,38.574,25.879,24.414,63.477,26.855
1584599723.220,12.695,21.484,22.949,-0.977,11.719
1584599723.224,20.508,21.973,24.414,-8.301,26.367
1584599723.227,42.969,26.855,29.785,49.805,18.066
1584599723.231,40.527,25.879,31.738,66.895,-14.648
1584599723.235,20.996,23.926,27.344,14.648,-39.551
1584599723.239,20.996,25.391,31.738,-6.348,-0.977
1584599723.243,47.363,31.738,37.109,50.781,41.504
1584599723.247,47.852,32.715,33.691,87.402,18.555
1584599723.251,13.184,24.902,30.762,37.598,2.441
1584599723.255,-0.977,23.438,25.391,-19.531,-8.301
1584599723.259,32.227,27.832,25.879,22.949,6.348
1584599723.263,54.688,31.250,31.250,83.984,28.809
1584599723.267,17.090,25.391,26.367,41.016,20.996
1584599723.270,-16.113,20.020,20.508,-28.809,7.812
1584599723.274,13.672,26.367,24.414,-10.742,47.363
1584599723.278,40.527,30.273,28.809,54.688,-8.789
1584599723.282,23.926,27.344,29.297,49.805,-41.016
1584599723.286,0.488,24.902,30.273,-16.602,-15.625
1584599723.290,5.371,29.785,28.320,-34.180,15.625
1584599723.294,31.250,31.250,26.855,28.809,50.781
1584599723.298,28.809,26.367,27.832,55.176,76.660
1584599723.302,6.836,24.902,21.973,1.465,58.105
1584599723.306,5.371,25.879,22.461,-32.715,1.953
1584599723.310,28.809,23.438,28.320,19.043,-31.250
1584599723.313,34.180,20.508,29.785,68.848,20.508
1584599723.317,10.742,17.090,27.832,29.785,23.438
1584599723.321,-0.488,18.066,26.367,-26.855,11.230
1584599723.325,24.414,25.391,26.367,3.906,35.156
1584599723.329,47.363,29.785,28.320,67.871,0.000
1584599723.333,32.715,27.832,28.809,46.875,17.090
1584599723.337,7.812,24.414,22.949,-13.184,36.621
1584599723.341,17.578,22.461,20.996,1.953,40.527
1584599723.345,41.504,23.438,22.461,65.430,24.414
1584599723.349,36.133,18.066,21.973,65.918,-25.391
1584599723.352,15.137,19.043,21.973,2.930,-1.953
1584599723.356,18.555,30.762,20.508,-14.160,40.527
1584599723.360,42.480,30.273,23.438,46.387,29.297
1584599723.364,44.922,21.973,27.344,70.312,5.859
1584599723.368,27.344,19.043,27.344,22.949,10.254
1584599723.372,20.508,23.438,31.738,-7.324,35.156
1584599723.376,38.086,29.785,33.691,36.621,111.328
1584599723.380,41.992,31.250,30.762,76.660,48.828
1584599723.384,14.160,27.344,28.320,38.574,-41.016
1584599723.388,-0.488,26.367,25.879,-10.254,41.504
1584599723.392,18.066,29.297,24.902,8.301,55.664
1584599723.395,42.969,29.297,25.879,62.988,-24.902
1584599723.399,35.156,27.344,26.367,54.688,20.020
1584599723.403,12.695,24.414,26.855,-5.371,74.219
1584599723.407,13.184,21.484,25.879,-9.277,34.668
1584599723.411,32.715,25.391,23.926,50.293,63.965
1584599723.415,38.086,27.832,27.344,67.383,91.309
1584599723.419,12.695,26.367,28.809,13.184,62.500
1584599723.423,8.789,24.902,25.879,-19.043,57.617
1584599723.427,35.156,27.344,28.320,32.715,55.176
1584599723.431,38.086,29.785,26.855,72.266,41.992
1584599723.435,21.973,26.367,22.461,29.785,22.461
1584599723.438,22.949,22.949,24.902,-5.859,23.438
1584599723.442,49.805,25.879,27.832,42.969,-1.465
1584599723.446,63.965,33.203,28.320,102.051,40.527
1584599723.450,32.715,30.762,29.785,59.570,73.730
1584599723.454,-1.953,23.926,33.691,-15.625,28.320
1584599723.458,9.277,26.367,39.551,2.930,21.973
1584599723.462,30.273,28.809,44.434,66.895,44.922
1584599723.466,16.602,25.879,41.992,59.082,20.996
1584599723.470,-7.812,22.461,39.551,-5.371,-5.859
1584599723.474,9.766,25.391,40.039,-12.207,5.371
1584599723.477,48.340,32.227,36.621,60.547,20.020
1584599723.481,44.434,34.668,33.203,78.613,24.902
1584599723.485,16.113,27.832,32.715,13.672,27.344
1584599723.489,10.254,25.879,31.250,-17.578,-16.113
1584599723.493,34.668,31.250,29.297,36.621,-12.207
1584599723.497,47.363,34.668,31.738,80.078,42.969
1584599723.501,30.273,34.180,32.715,40.039,25.879
1584599723.505,17.090,25.879,31.250,-8.301,33.203
1584599723.509,35.645,24.902,36.133,24.902,41.504
1584599723.513,47.852,27.832,42.480,79.102,45.410
1584599723.517,30.762,26.367,37.109,53.223,47.852
1584599723.520,11.719,24.414,29.785,-6.836,27.832
1584599723.524,28.320,25.879,32.715,7.812,55.664
1584599723.528,56.152,29.785,34.180,74.707,54.688
1584599723.532,53.711,34.180,31.738,69.336,-0.488
1584599723.536,28.809,31.250,33.203,7.324,38.574
1584599723.540,27.344,25.879,33.203,-5.859,47.852
1584599723.544,44.922,31.250,31.738,52.246,-2.441
1584599723.548,41.504,30.762,29.297,80.078,-24.414
1584599723.552,25.879,25.879,26.367,27.344,34.180
1584599723.556,27.832,29.785,25.391,-9.277,69.824
1584599723.560,55.664,30.273,30.273,33.203,14.648
1584599723.563,60.059,28.320,33.203,84.961,48.828
1584599723.567,30.273,25.391,29.785,57.617,58.105
1584599723.571,13.672,20.020,26.855,-5.371,29.297
1584599723.575,32.715,22.949,27.832,14.648,-4.395
1584599723.579,45.898,27.832,27.832,74.707,-0.977
1584599723.583,23.438,24.414,25.391,59.082,8.301
1584599723.587,4.395,20.020,27.344,-4.395,-8.789
1584599723.591,21.484,25.391,25.391,-4.883,14.160
1584599723.595,50.293,36.621,26.855,65.918,44.922
1584599723.599,44.434,31.250,29.297,77.637,2.930
1584599723.602,17.578,18.066,25.391,7.812,-14.648
1584599723.606,20.996,17.578,31.250,-12.695,9.766
1584599723.610,47.363,19.531,35.156,47.363,22.949
1584599723.614,44.922,15.625,32.715,76.660,64.941
1584599723.618,15.137,15.137,29.785,21.973,54.688
1584599723.622,9.277,19.531,29.297,-18.555,5.859
1584599723.626,33.691,18.066,30.762,25.879,-14.160
1584599723.630,47.852,19.043,31.250,72.266,4.395
1584599723.634,27.344,17.090,30.273,37.598,14.160
1584599723.638,6.836,11.230,29.785,-21.973,25.391
1584599723.642,26.855,14.160,36.133,0.000,-23.438
1584599723.645,49.316,17.090,40.527,63.965,14.160
1584599723.649,41.992,20.508,38.086,53.711,70.801
1584599723.653,14.160,18.066,30.273,-9.277,29.297
1584599723.657,16.602,14.160,23.926,-12.695,45.898
1584599723.661,44.922,18.066,26.855,48.828,67.383
1584599723.665,41.504,20.020,28.320,62.012,29.785
1584599723.669,12.207,16.602,26.855,3.906,31.738
1584599723.673,5.371,15.137,25.879,-19.043,36.621
1584599723.677,31.738,23.926,27.344,39.062,33.203
1584599723.681,38.574,24.902,27.832,77.637,49.805
1584599723.685,8.789,17.090,27.344,30.762,28.809
1584599723.688,3.906,20.020,30.273,-10.254,3.418
1584599723.692,34.668,26.367,28.320,29.785,18.555
1584599723.696,41.992,25.391,24.902,77.148,82.031
1584599723.700,17.578,24.414,24.414,48.340,60.547
1584599723.704,-0.488,22.949,18.555,-9.766,71.289
1584599723.708,17.578,25.879,20.508,0.977,39.551
1584599723.712,41.992,33.203,27.832,64.941,0.488
1584599723.716,35.156,29.785,27.832,61.523,23.926
1584599723.720,12.207,26.855,26.367,-3.418,85.449
1584599723.724,20.996,36.133,28.320,-9.277,130.371
1584599723.727,52.246,41.016,29.785,56.152,43.945
1584599723.731,50.293,34.180,25.879,72.754,-2.930
1584599723.735,24.414,28.809,20.508,10.254,-61.523
1584599723.739,25.391,33.691,20.020,-17.578,-42.969
1584599723.743,48.340,43.945,25.391,35.156,18.555
1584599723.747,42.969,45.898,28.320,87.402,52.246
1584599723.751,20.996,39.062,26.367,47.852,45.898
1584599723.755,16.113,39.551,26.855,-20.996,13.672
1584599723.759,36.133,47.852,31.250,18.555,-5.371
1584599723.763,54.199,50.293,31.250,81.543,20.996
1584599723.767,30.762,43.945,25.879,53.711,0.000
1584599723.770,1.465,48.828,30.273,1.953,25.391
1584599723.774,11.719,58.594,34.668,13.672,98.633
1584599723.778,30.273,55.664,31.738,68.848,31.738
1584599723.782,24.414,52.734,30.762,68.359,-8.301
1584599723.786,11.230,51.758,25.879,7.812,43.945
1584599723.790,31.738,52.734,27.832,7.812,22.461
1584599723.794,72.266,58.594,32.227,82.520,31.738
1584599723.798,64.453,63.477,28.320,88.867,39.062
1584599723.802,13.184,65.918,30.273,14.160,18.555
1584599723.806,0.488,65.430,37.109,-18.066,65.430
1584599723.810,24.902,64.453,42.480,30.762,90.820
1584599723.813,30.273,67.383,39.062,75.684,82.031
1584599723.817,14.648,70.312,37.598,42.480,51.270
1584599723.821,4.883,70.312,36.621,-10.254,19.043
1584599723.825,26.855,70.801,30.273,13.184,-6.836
1584599723.829,49.805,75.195,34.180,77.637,50.781
1584599723.833,35.645,73.730,36.621,60.547,78.613
1584599723.837,12.207,69.336,35.156,-5.859,64.941
1584599723.841,22.461,72.266,34.668,-4.395,30.273
1584599723.845,44.922,81.055,34.180,53.711,22.461
1584599723.849,40.039,82.031,35.156,69.336,62.500
1584599723.852,17.578,75.195,33.691,11.230,41.992
1584599723.856,18.066,78.613,34.180,-16.602,20.508
1584599723.860,45.898,89.355,38.086,50.781,11.230
1584599723.864,50.781,92.773,37.598,86.914,14.160
1584599723.868,20.996,85.449,33.203,29.785,32.715
1584599723.872,8.301,83.008,33.691,-13.184,-3.418
1584599723.876,31.738,86.426,33.691,28.320,-4.883
1584599723.880,46.387,85.938,34.180,80.078,31.250
1584599723.884,27.832,82.031,35.645,50.293,25.879
1584599723.888,5.859,76.172,29.785,-14.648,-21.973
1584599723.892,24.414,78.125,30.762,0.977,-18.066
1584599723.895,42.969,80.566,35.156,65.430,34.668
1584599723.899,27.344,76.172,31.250,55.176,22.461
1584599723.903,6.348,68.359,29.297,-12.207,7.812
1584599723.907,10.254,64.453,28.320,-17.578,42.480
1584599723.911,33.691,71.289,31.738,50.293,90.820
1584599723.915,30.762,68.848,32.715,61.035,44.434
1584599723.919,0.488,61.035,31.738,-0.977,7.812
1584599723.923,0.488,59.082,34.668,-22.949,33.691
1584599723.927,30.762,64.941,34.668,38.574,40.039
1584599723.931,38.086,70.801,34.668,75.195,52.734
1584599723.935,15.137,62.012,32.715,17.578,3.418
1584599723.938,0.488,55.664,29.297,-29.785,-16.113
1584599723.942,24.414,63.965,33.203,17.578,20.996
1584599723.946,45.898,68.359,40.527,75.684,27.832
1584599723.950,29.297,62.500,38.574,43.945,40.039
1584599723.954,11.719,59.082,36.133,-13.184,5.371
1584599723.958,25.391,60.547,37.109,0.977,-41.016
1584599723.962,40.527,62.500,36.621,56.152,-1.465
1584599723.966,30.273,63.477,36.621,57.617,73.730
1584599723.970,15.625,61.035,35.156,2.930,50.781
1584599723.974,22.949,56.641,35.645,-4.395,25.879
1584599723.977,43.457,59.082,40.527,53.711,33.691
1584599723.981,41.992,58.105,41.016,68.359,47.852
1584599723.985,18.555,48.340,33.203,14.648,69.824
1584599723.989,19.043,45.898,33.691,-13.184,64.453
1584599723.993,42.480,49.805,38.574,35.156,33.203
1584599723.997,45.898,48.828,36.621,73.242,-24.902
1584599724.001,31.250,44.434,35.156,33.203,-13.184
1584599724.005,20.020,43.945,36.133,-16.113,31.738
1584599724.009,36.133,48.340,37.598,9.766,-0.977
1584599724.013,52.246,54.199,41.016,69.336,33.203
1584599724.017,32.715,48.828,44.922,58.594,84.961
1584599724.020,5.859,36.621,42.480,-5.859,7.324
1584599724.024,19.043,39.062,38.086,-6.348,-20.996
1584599724.028,48.340,47.363,41.016,68.359,17.578
1584599724.032,44.922,44.434,44.922,80.566,32.227
1584599724.036,8.789,36.621,42.969,2.930,53.711
1584599724.040,4.883,36.133,44.922,-26.367,62.988
1584599724.044,35.156,44.922,45.898,38.086,70.801
1584599724.048,40.527,41.992,43.457,68.359,29.785
1584599724.052,12.207,30.273,40.039,10.742,-25.391
1584599724.056,-2.930,28.320,37.109,-34.180,0.000
1584599724.060,14.160,32.715,38.574,12.207,35.156
1584599724.063,27.832,33.691,41.992,68.359,41.504
1584599724.067,17.090,29.785,39.551,30.762,-13.672
1584599724.071,5.371,26.855,39.062,-29.297,-64.453
1584599724.075,28.320,28.320,43.457,2.930,-4.883
1584599724.079,49.805,28.809,40.039,63.965,-4.395
1584599724.083,35.156,26.367,39.062,47.363,-32.227
1584599724.087,12.695,27.344,44.434,-9.277,1.953
1584599724.091,25.391,25.391,44.922,-2.930,11.719
1584599724.095,51.270,22.949,42.480,60.547,-29.297
1584599724.099,41.504,17.578,38.086,68.359,-19.531
1584599724.102,17.090,12.695,35.645,11.230,-0.977
1584599724.106,19.531,12.207,35.645,-7.812,56.641
1584599724.110,41.992,8.789,33.691,46.387,108.887
1584599724.114,47.852,6.836,34.180,77.148,55.176
1584599724.118,27.832,2.930,35.645,25.879,0.000
1584599724.122,10.254,-0.977,33.203,-10.742,34.668
1584599724.126,30.273,3.418,32.227,31.250,47.852
1584599724.130,49.316,1.465,33.203,68.359,29.297
1584599724.134,31.250,-7.324,31.738,39.062,36.621
1584599724.138,16.602,-11.719,27.344,-16.602,31.738
1584599724.142,35.645,-9.277,29.785,-0.977,37.109
1584599724.145,45.898,-9.277,33.203,60.547,33.203
1584599724.149,33.691,-12.695,33.203,56.152,-45.898
1584599724.153,14.160,-17.578,30.762,-1.465,-31.250
1584599724.157,15.625,-17.578,26.367,-11.230,57.617
1584599724.161,42.969,-11.719,28.809,49.316,9.766
1584599724.165,41.992,-15.625,29.785,66.895,-4.395
1584599724.169,13.672,-19.531,26.367,9.277,41.992
1584599724.173,15.137,-19.531,26.367,-23.926,31.738
1584599724.177,44.922,-14.648,28.809,26.855,-15.137
1584599724.181,53.223,-12.695,29.297,76.660,58.105
1584599724.185,24.902,-19.531,27.832,34.668,87.402
1584599724.188,10.742,-20.996,23.438,-20.508,45.898
1584599724.192,32.227,-16.602,24.902,16.602,73.242
1584599724.196,44.922,-13.672,29.297,75.684,24.414
1584599724.200,38.086,-19.043,31.250,55.664,-14.160
1584599724.204,33.691,-27.344,35.156,9.766,-6.836
1584599724.208,34.180,-19.531,25.879,2.930,16.602
1584599724.212,27.832,-10.254,14.648,37.598,2.930
1584599724.216,22.949,-12.207,19.043,38.086,14.648
1584599724.220,12.695,-13.184,24.414,-19.043,44.434
1584599724.224,20.996,-16.602,26.855,-22.461,41.504
1584599724.227,39.062,-14.648,22.949,33.203,83.496
1584599724.231,34.180,-9.766,16.602,45.410,78.613
1584599724.235,6.836,-12.695,13.672,-6.836,35.156
1584599724.239,-14.648,-14.160,12.695,-42.480,62.012
1584599724.243,6.348,-13.672,12.695,5.859,69.824
1584599724.247,23.926,-11.719,11.719,55.176,47.363
1584599724.251,4.395,-11.230,11.719,17.578,43.945
1584599724.255,-6.836,-12.695,14.648,-32.227,-20.996
1584599724.259,15.137,-12.695,14.648,-4.883,-32.227
1584599724.263,35.156,-7.812,12.207,47.363,33.691
1584599724.267,23.438,-6.836,11.230,27.832,36.133
1584599724.270,-1.953,-12.207,11.230,-26.855,42.480
1584599724.274,16.602,-7.812,14.160,-14.160,45.410
1584599724.278,47.363,-1.465,17.578,51.270,10.254
1584599724.282,38.574,-2.930,17.090,55.664,58.594
1584599724.286,15.625,-8.301,16.113,-4.395,40.527
1584599724.290,14.648,-9.766,16.602,-20.996,5.859
1584599724.294,33.691,0.000,21.973,47.363,53.223
1584599724.298,37.109,5.859,21.973,78.613,20.020
1584599724.302,13.672,-3.906,15.137,22.461,-24.414
1584599724.306,7.812,-5.859,12.207,-16.602,-22.949
1584599724.310,27.832,-1.465,17.578,26.367,-16.602
1584599724.313,36.621,0.000,18.066,76.172,-1.953
1584599724.317,26.367,2.441,12.695,41.504,13.184
1584599724.321,16.113,2.441,10.254,-13.672,25.391
1584599724.325,32.715,12.207,20.508,17.090,-4.395
1584599724.329,48.340,24.902,26.367,85.449,17.090
1584599724.333,26.855,11.230,8.789,61.523,67.871
1584599724.337,7.324,-7.324,1.465,-10.742,16.113
1584599724.341,18.555,-2.441,8.301,-10.254,-17.090
1584599724.345,35.645,10.742,13.672,56.152,43.945
1584599724.349,33.203,13.672,18.066,75.684,92.773
1584599724.352,9.277,9.277,17.578,12.695,67.383
1584599724.356,2.441,13.672,20.020,-11.719,70.801
1584599724.360,22.949,23.438,23.926,50.293,60.547
1584599724.364,25.391,22.461,21.973,82.520,16.602
1584599724.368,1.953,18.066,16.602,31.738,14.160
1584599724.372,-6.836,23.926,15.625,-9.766,60.059
1584599724.376,14.160,27.832,20.020,28.320,1.953
1584599724.380,29.297,30.762,17.578,74.707,-14.160
1584599724.384,17.090,31.738,17.578,40.527,24.414
1584599724.388,1.465,29.785,18.555,-17.090,-20.508
1584599724.392,20.996,41.016,18.555,9.277,-10.254
1584599724.395,42.480,47.363,23.926,74.707,12.695
1584599724.399,27.832,44.434,24.902,64.941,34.668
1584599724.403,-0.488,46.875,20.508,7.324,53.711
1584599724.407,10.742,46.387,19.531,10.254,1.465
1584599724.411,36.621,44.922,24.414,72.266,-7.324
1584599724.415,24.902,46.387,22.461,75.684,33.691
1584599724.419,0.000,50.293,18.555,17.090,64.453
1584599724.423,4.883,50.781,20.508,-3.906,31.250
1584599724.427,40.039,51.758,18.555,48.828,17.090
1584599724.431,52.246,50.293,19.043,87.402,9.277
1584599724.435,21.484,40.527,18.066,41.504,-17.090
1584599724.438,6.348,43.457,20.020,-0.488,14.160
1584599724.442,32.227,49.805,22.461,34.180,38.574
1584599724.446,43.457,46.387,19.531,78.125,34.668
1584599724.450,23.926,41.504,20.020,47.363,7.324
1584599724.454,9.766,37.598,18.555,-12.207,23.438
1584599724.458,31.250,43.945,24.902,0.000,45.410
1584599724.462,52.734,49.805,29.785,62.500,5.859
1584599724.466,33.203,47.363,25.879,64.941,35.645
1584599724.470,6.348,41.992,23.438,5.859,58.594
1584599724.474,9.766,37.109,20.996,-4.883,3.418
1584599724.477,30.762,37.598,22.949,57.129,25.879
1584599724.481,29.297,40.527,23.926,75.684,55.664
1584599724.485,8.301,41.992,21.484,13.184,-18.555
1584599724.489,4.883,43.945,25.391,-19.531,18.066
1584599724.493,23.926,43.945,27.832,32.715,48.828
1584599724.497,34.668,40.527,24.902,77.148,45.898
1584599724.501,17.090,33.691,20.996,33.691,70.312
1584599724.505,3.418,35.156,22.461,-24.902,41.992
1584599724.509,25.879,45.410,31.738,7.812,45.898
1584599724.513,46.387,46.875,33.203,69.824,47.363
1584599724.517,33.691,40.527,28.320,57.129,45.898
1584599724.520,13.672,34.668,26.367,-5.371,16.602
1584599724.524,25.391,35.645,28.320,-1.953,-6.348
1584599724.528,52.246,44.434,30.273,70.801,43.945
1584599724.532,47.363,47.852,30.273,71.289,0.977
1584599724.536,6.348,34.668,28.809,5.859,24.414
1584599724.540,-1.465,24.414,24.902,-11.719,101.562
1584599724.544,27.344,27.344,24.414,44.434,34.668
1584599724.548,35.156,31.738,25.391,68.848,-36.133
1584599724.552,14.160,33.203,28.809,16.113,-9.277
1584599724.556,3.906,26.855,27.832,-18.066,45.410
1584599724.560,33.203,30.273,26.367,29.297,29.297
1584599724.563,49.316,43.457,31.250,76.660,52.734
1584599724.567,30.273,38.086,30.273,38.574,-2.441
1584599724.571,12.207,29.785,22.949,-19.531,-13.184
1584599724.575,26.367,31.250,21.973,7.324,40.527
1584599724.579,41.016,32.227,27.832,69.336,16.602
1584599724.583,22.949,28.320,27.344,54.199,12.695
1584599724.587,0.000,24.414,24.902,-6.348,49.805
1584599724.591,9.766,22.461,28.809,-7.812,80.078
1584599724.595,36.133,19.531,32.227,48.340,-7.324
1584599724.599,39.062,22.461,33.691,62.988,3.906
1584599724.602,15.137,19.531,33.203,8.789,38.086
1584599724.606,12.207,17.090,33.203,-15.137,80.078
1584599724.610,37.598,23.438,33.691,40.039,71.777
1584599724.614,46.875,26.367,32.715,74.219,-1.465
1584599724.618,27.832,24.414,30.762,24.414,16.113
1584599724.622,18.066,21.484,28.809,-21.973,42.480
1584599724.626,36.133,21.484,32.227,23.438,32.227
1584599724.630,46.875,21.973,34.668,78.613,-20.020
1584599724.634,25.879,16.113,29.297,46.875,-13.184
1584599724.638,12.207,13.184,26.855,-15.137,36.133
1584599724.642,36.133,22.949,29.297,1.465,44.922
1584599724.645,51.270,27.344,28.320,69.336,43.945
1584599724.649,29.297,20.996,29.297,66.406,40.527
1584599724.653,3.906,15.625,27.832,-1.465,51.758
1584599724.657,17.090,17.090,23.926,-13.672,31.250
1584599724.661,46.875,24.414,27.344,55.664,15.625
1584599724.665,49.805,26.367,33.691,78.125,-6.836
1584599724.669,22.461,22.949,31.738,22.949,-30.273
1584599724.673,13.184,25.391,27.832,-5.371,31.738
1584599724.677,38.086,26.855,27.344,43.945,68.359
1584599724.681,43.945,27.832,22.461,76.172,21.973
1584599724.685,26.855,30.273,16.602,21.484,5.371
1584599724.688,20.996,31.738,19.043,-20.508,23.926
1584599724.692,41.016,32.715,23.926,24.902,59.082
1584599724.696,57.617,34.180,21.973,84.473,70.312
1584599724.700,58.105,26.367,26.367,74.219,30.762
1584599724.704,54.199,20.996,27.344,19.531,22.949
1584599724.708,47.852,28.809,19.043,-1.465,71.289
1584599724.712,50.293,33.203,24.414,46.875,66.406
1584599724.716,44.434,29.785,30.762,55.176,32.227
1584599724.720,27.344,28.320,21.973,-6.348,50.781
1584599724.724,33.691,33.691,18.555,-11.719,38.574
1584599724.727,51.270,35.156,21.973,54.688,18.555
1584599724.731,48.828,32.227,23.438,78.613,35.156
1584599724.735,26.855,29.297,22.949,27.344,11.719
1584599724.739,24.414,28.320,23.926,-9.277,-10.742
1584599724.743,53.711,31.250,28.320,41.016,-5.859
1584599724.747,64.453,35.645,26.367,92.773,-15.625
1584599724.751,32.715,30.762,23.438,56.641,12.207
1584599724.755,9.277,24.902,24.414,0.488,29.785
1584599724.759,28.320,29.785,28.320,23.926,10.254
1584599724.763,44.922,33.203,32.227,83.496,23.438
1584599724.767,33.691,26.367,31.250,67.871,42.480
1584599724.770,14.160,20.508,26.855,3.906,52.246
1584599724.774,24.902,24.902,27.832,2.441,37.109
1584599724.778,49.805,29.785,30.762,67.871,47.363
1584599724.782,56.641,28.809,29.297,81.055,101.074
1584599724.786,41.992,27.832,24.902,15.137,75.684
1584599724.790,41.504,30.762,28.320,-5.859,13.184
1584599724.794,63.477,25.391,32.715,55.176,94.727
1584599724.798,56.641,22.949,27.832,88.379,113.281
1584599724.802,31.250,30.273,22.949,39.062,20.508
1584599724.806,25.879,33.691,22.461,-6.348,-19.531
1584599724.810,52.734,38.574,26.367,34.668,10.742
1584599724.813,57.129,38.086,29.785,86.914,47.852
1584599724.817,25.391,35.156,28.320,58.105,59.570
1584599724.821,7.812,33.203,27.832,-1.465,-0.488
1584599724.825,19.043,33.203,26.855,15.625,21.973
1584599724.829,32.227,34.180,27.344,80.078,21.484
1584599724.833,21.973,29.785,28.809,64.941,1.465
1584599724.837,-1.953,24.902,27.832,-2.930,15.625
1584599724.841,3.906,28.320,28.809,-4.883,-29.297
1584599724.845,31.738,32.715,28.809,61.523,-17.578
1584599724.849,33.691,33.203,28.809,78.613,4.883
1584599724.852,12.207,29.785,27.832,20.996,43.457
1584599724.856,16.602,29.785,26.367,-7.324,41.016
1584599724.860,37.598,29.785,30.273,47.852,-1.953
1584599724.864,36.133,26.367,28.320,82.031,17.090
1584599724.868,20.020,25.391,28.320,28.809,48.340
1584599724.872,13.184,25.391,31.250,-14.160,49.316
1584599724.876,32.715,22.461,28.320,22.949,3.418
1584599724.880,47.852,24.902,25.391,70.801,-1.953
1584599724.884,35.156,26.855,23.926,45.898,33.691
1584599724.888,10.742,17.578,25.391,-8.301,51.758
1584599724.892,20.020,20.508,28.320,5.371,54.199
1584599724.895,45.410,25.391,28.320,67.383,19.043
1584599724.899,38.086,20.996,25.879,64.453,4.883
1584599724.903,14.648,19.043,27.832,-3.418,27.832
1584599724.907,20.020,23.926,30.273,-9.766,37.598
1584599724.911,44.434,29.297,27.832,50.781,10.742
1584599724.915,44.922,28.320,26.367,66.895,20.020
1584599724.919,21.484,21.484,26.367,15.137,15.137
1584599724.923,17.090,22.461,26.367,-22.461,3.906
1584599724.927,38.574,27.344,29.785,26.367,4.883
1584599724.931,47.852,25.879,28.320,77.148,23.438
1584599724.935,30.762,19.531,24.902,36.133,71.289
1584599724.938,22.461,20.508,30.273,-12.695,48.340
1584599724.942,49.316,30.273,36.133,24.414,38.574
1584599724.946,62.500,31.250,35.156,78.125,41.992
1584599724.950,35.645,27.832,35.645,48.340,30.762
1584599724.954,11.719,26.367,33.203,-13.184,68.359
1584599724.958,26.855,30.273,31.738,-4.883,47.363
1584599724.962,42.480,33.203,30.273,52.246,29.785
1584599724.966,33.691,33.691,29.785,52.734,81.543
1584599724.970,14.648,35.645,36.621,-5.859,79.102
1584599724.974,8.789,30.273,34.180,-22.461,12.207
1584599724.977,33.203,25.879,33.203,42.480,47.363
1584599724.981,49.316,37.598,36.621,78.613,28.809
1584599724.985,16.602,35.156,34.180,11.719,-41.504
1584599724.989,2.441,26.367,33.203,-39.551,22.461
1584599724.993,20.020,29.297,32.715,11.230,85.938
1584599724.997,21.484,37.109,35.645,60.547,80.078
1584599725.001,-15.137,29.297,27.832,7.324,-7.324
1584599725.005,-53.223,21.973,24.414,-59.082,-11.719
1584599725.009,-29.785,29.785,30.762,-41.016,18.066
1584599725.013,0.488,33.691,36.621,3.906,-5.859
1584599725.017,-9.277,32.227,36.133,-2.930,35.156
1584599725.020,-34.668,23.926,33.203,-59.082,40.527
1584599725.024,-47.363,21.484,35.156,-67.871,-26.855
1584599725.028,-36.621,28.320,38.574,-14.160,-58.594
1584599725.032,-30.762,26.855,40.039,-5.371,-21.484
1584599725.036,-59.570,18.555,32.715,-71.777,-11.719
1584599725.040,-62.500,20.020,27.832,-103.027,0.488
1584599725.044,-28.320,29.297,29.785,-43.457,-3.906
1584599725.048,-20.996,30.762,28.809,-3.418,-60.059
1584599725.052,-44.922,22.949,26.855,-44.922,-29.297
1584599725.056,-47.852,22.461,28.320,-78.613,20.020
1584599725.060,-18.555,24.414,32.715,-32.227,13.672
1584599725.063,4.395,25.879,36.621,30.762,32.715
1584599725.067,-4.883,26.367,34.668,8.789,23.438
1584599725.071,-23.926,22.461,23.926,-50.293,-7.324
1584599725.075,-1.953,25.879,21.973,-21.484,14.648
1584599725.079,32.715,31.738,26.855,58.594,26.367
1584599725.083,28.320,30.762,24.414,51.758,-12.207
1584599725.087,2.441,26.367,22.949,-16.113,31.250
1584599725.091,16.113,26.367,29.297,-10.742,43.945
1584599725.095,50.781,31.738,32.715,64.453,16.602
1584599725.099,48.828,30.273,30.273,84.473,41.992
1584599725.102,24.902,23.438,25.879,24.902,27.832
1584599725.106,24.902,25.391,24.902,0.000,69.824
1584599725.110,49.805,31.250,26.855,59.082,61.035
1584599725.114,51.758,30.762,23.438,97.656,43.457
1584599725.118,24.902,23.438,20.508,53.223,50.293
1584599725.122,23.926,21.484,20.508,2.441,47.363
1584599725.126,49.316,24.902,21.973,34.180,93.262
1584599725.130,62.500,27.344,24.414,94.238,81.055
1584599725.134,49.316,25.879,22.461,66.406,16.602
1584599725.138,32.227,27.344,20.508,4.395,-16.113
1584599725.142,41.504,31.250,24.414,22.461,1.953
1584599725.145,62.500,29.297,24.902,92.285,56.641
1584599725.149,61.035,27.344,20.996,86.426,52.734
1584599725.153,41.992,26.855,20.996,19.531,22.949
1584599725.157,47.363,29.785,25.391,16.602,-2.930
1584599725.161,70.312,32.715,23.926,76.172,-42.480
1584599725.165,70.801,34.180,21.973,92.285,-11.719
1584599725.169,44.922,31.738,21.973,40.527,32.227
1584599725.173,39.062,27.344,21.973,8.789,8.789
1584599725.177,67.383,30.273,23.926,61.035,31.250
1584599725.181,76.172,33.203,24.414,107.422,40.039
1584599725.185,48.828,30.762,27.344,65.430,35.156
1584599725.188,35.156,28.320,26.855,12.207,68.359
1584599725.192,54.199,26.855,24.414,40.527,47.852
1584599725.196,67.871,32.715,23.438,93.750,20.996
1584599725.200,54.688,35.645,23.926,71.289,-0.977
1584599725.204,37.109,27.832,22.949,3.418,8.301
1584599725.208,44.434,27.344,20.508,2.441,13.184
1584599725.212,55.664,32.715,20.996,72.754,52.734
1584599725.216,44.922,30.762,20.508,85.938,109.375
1584599725.220,23.926,26.855,19.043,22.461,37.598
1584599725.224,29.785,23.438,24.414,3.418,-20.996
1584599725.227,77.148,27.832,27.832,70.801,20.996
1584599725.231,82.520,31.250,23.926,96.191,21.484
1584599725.235,28.320,26.367,21.973,23.438,-15.625
1584599725.239,4.883,26.367,18.066,-28.320,-10.254
1584599725.243,22.461,26.367,23.438,8.301,29.785
1584599725.247,40.039,28.809,30.762,65.430,36.133
1584599725.251,27.832,30.762,30.273,34.668,10.254
1584599725.255,3.418,24.414,24.414,-35.156,23.926
1584599725.259,15.625,22.949,20.996,-11.719,14.160
1584599725.263,33.691,22.949,25.879,52.734,-39.062
1584599725.267,22.949,20.508,23.438,42.480,-5.859
1584599725.270,1.953,16.602,18.066,-12.207,53.223
1584599725.274,16.602,20.996,24.902,-9.766,48.340
1584599725.278,48.828,27.344,28.809,53.223,28.320
1584599725.282,45.410,24.902,30.273,66.895,48.340
1584599725.286,14.648,20.020,25.879,-1.465,66.895
1584599725.290,9.277,20.508,17.578,-31.250,29.785
1584599725.294,37.109,23.438,20.996,35.156,15.137
1584599725.298,46.387,18.066,24.414,68.848,43.945
1584599725.302,29.785,20.020,20.508,14.160,56.641
1584599725.306,27.344,21.973,21.973,-19.043,46.875
1584599725.310,41.016,19.043,26.855,32.227,22.949
1584599725.313,48.828,21.484,24.902,82.520,4.883
1584599725.317,33.691,18.066,25.879,58.594,-17.578
1584599725.321,7.324,16.602,26.855,5.859,28.320
1584599725.325,18.555,24.414,29.297,13.184,60.547
1584599725.329,43.945,22.461,30.762,73.730,23.926
1584599725.333,34.668,19.043,24.902,71.777,62.988
1584599725.337,16.113,21.484,21.973,3.418,60.059
1584599725.341,28.809,21.484,24.414,-4.883,40.527
1584599725.345,51.758,24.902,25.879,54.199,62.012
1584599725.349,45.410,25.879,22.461,70.312,-14.648
1584599725.352,16.602,18.066,21.484,16.113,1.465
1584599725.356,15.625,17.090,21.973,-20.020,17.090
1584599725.360,53.711,25.391,23.438,30.762,-26.855
1584599725.364,67.383,29.297,27.832,78.125,9.277
1584599725.368,38.574,23.438,25.391,33.203,38.086
1584599725.372,20.508,21.973,22.461,-19.043,41.992
1584599725.376,37.598,28.809,24.902,21.973,21.484
1584599725.380,60.059,32.227,26.367,81.543,50.293
1584599725.384,43.945,24.414,23.926,54.688,42.969
1584599725.388,23.926,24.414,23.438,-9.766,-6.348
1584599725.392,44.922,31.250,28.320,6.836,0.000
1584599725.395,62.988,27.344,24.902,75.195,32.715
1584599725.399,47.363,23.438,20.508,74.219,29.297
1584599725.403,18.066,23.438,18.555,6.348,54.688
1584599725.407,14.160,21.973,19.043,-8.789,10.742
1584599725.411,32.227,22.949,25.391,56.152,-41.504
1584599725.415,34.668,25.391,26.367,82.520,3.906
1584599725.419,11.230,26.367,27.832,25.391,-0.488
1584599725.423,2.930,24.414,27.832,-15.625,-5.371
1584599725.427,33.691,25.391,21.973,33.203,20.020
1584599725.431,47.363,26.855,22.949,79.102,20.020
1584599725.435,24.414,26.855,27.832,41.016,4.883
1584599725.438,11.719,27.344,26.855,-1.953,20.020
1584599725.442,41.992,30.273,22.461,41.504,35.645
1584599725.446,68.848,35.645,25.391,105.469,42.480
1584599725.450,33.691,34.180,32.715,69.336,34.668
1584599725.454,-10.254,32.227,34.668,-20.996,6.836
1584599725.458,4.883,38.086,33.691,-13.672,9.277
1584599725.462,43.457,42.480,35.156,69.336,62.500
1584599725.466,44.922,41.992,36.133,68.359,6.348
1584599725.470,17.090,40.527,33.691,3.418,19.531
1584599725.474,18.555,41.016,33.691,-7.812,41.016
1584599725.477,44.922,45.898,33.691,51.270,7.324
1584599725.481,43.457,47.852,31.738,84.473,47.363
1584599725.485,11.230,45.410,32.715,40.527,40.527
1584599725.489,-5.371,45.898,31.250,-2.441,0.000
1584599725.493,28.320,54.688,35.156,41.992,62.500
1584599725.497,55.176,61.035,39.062,100.098,64.453
1584599725.501,29.785,59.570,34.180,58.594,46.875
1584599725.505,6.348,55.664,36.133,-0.488,107.910
1584599725.509,28.320,53.223,41.016,26.367,47.852
1584599725.513,53.223,61.523,43.457,83.984,17.578
1584599725.517,40.527,60.547,43.457,71.777,44.434
1584599725.520,24.902,56.641,42.969,8.301,-7.324
1584599725.524,41.504,62.500,46.875,0.488,27.344
1584599725.528,58.594,67.871,48.828,68.848,34.668
1584599725.532,45.410,64.453,44.922,84.961,-2.930
1584599725.536,26.367,64.941,45.898,27.344,57.617
1584599725.540,34.180,74.707,47.363,2.441,73.242
1584599725.544,57.129,80.566,46.875,57.617,41.992
1584599725.548,55.176,81.543,46.875,96.680,24.902
1584599725.552,23.926,73.730,41.992,39.551,31.738
1584599725.556,10.254,71.777,43.457,-12.207,42.969
1584599725.560,36.133,78.613,45.410,26.855,65.918
1584599725.563,51.270,79.590,47.363,82.031,41.504
1584599725.567,25.391,78.613,47.363,55.176,-16.602
1584599725.571,5.859,83.008,47.852,-2.441,15.137
1584599725.575,26.367,87.402,46.875,17.578,38.574
1584599725.579,47.852,89.844,42.480,81.055,25.391
1584599725.583,40.039,83.496,45.898,70.801,-3.906
1584599725.587,17.578,78.125,42.480,0.000,20.508
1584599725.591,23.438,88.867,37.109,-6.836,32.227
1584599725.595,48.828,98.633,40.039,61.035,5.371
1584599725.599,41.016,95.703,43.945,79.102,7.324
1584599725.602,3.906,88.379,40.039,13.672,39.062
1584599725.606,-2.441,83.496,37.109,-21.973,42.480
1584599725.610,27.344,88.867,41.992,38.574,9.277
1584599725.614,39.551,90.332,45.898,84.961,-5.371
1584599725.618,18.555,79.102,43.457,36.621,5.371
1584599725.622,9.766,77.637,37.598,-12.695,58.105
1584599725.626,34.180,84.473,39.551,21.484,35.156
1584599725.630,47.363,80.078,42.969,72.266,21.973
1584599725.634,30.273,75.195,41.016,50.781,20.996
1584599725.638,8.789,73.730,40.527,-6.836,-10.742
1584599725.642,15.137,73.242,42.480,3.906,20.996
1584599725.645,34.180,75.195,43.945,66.895,45.898
1584599725.649,32.227,71.777,41.504,67.383,20.996
1584599725.653,9.277,65.430,37.109,4.395,20.508
1584599725.657,10.254,66.406,39.062,-13.184,-5.859
1584599725.661,40.039,70.312,43.457,50.293,22.461
1584599725.665,39.062,68.359,44.922,81.055,29.785
1584599725.669,16.113,61.035,43.457,28.320,12.207
1584599725.673,24.414,53.711,41.016,-2.930,51.270
1584599725.677,42.480,60.547,40.039,34.668,36.621
1584599725.681,29.785,62.988,37.598,57.129,25.391
1584599725.685,7.324,59.570,33.691,14.160,5.859
1584599725.688,4.883,60.059,28.320,-35.645,33.691
1584599725.692,25.391,64.941,27.344,-0.488,32.227
1584599725.696,41.016,68.848,29.785,63.965,-26.855
1584599725.700,34.668,62.988,27.832,48.340,-16.113
1584599725.704,20.020,57.617,25.391,-9.277,-26.855
1584599725.708,29.785,56.152,25.879,-7.812,-16.602
1584599725.712,52.734,61.035,29.785,61.523,35.156
1584599725.716,43.457,57.617,35.156,74.219,39.551
1584599725.720,10.742,44.434,31.738,0.488,8.789
1584599725.724,8.789,44.434,25.879,-24.902,19.531
1584599725.727,37.109,47.852,25.879,39.551,5.371
1584599725.731,38.574,47.852,28.809,73.730,27.832
1584599725.735,10.742,43.945,30.762,20.508,51.758
1584599725.739,7.812,43.457,30.762,-20.508,30.762
1584599725.743,37.598,45.410,28.320,20.020,22.461
1584599725.747,52.734,46.387,30.762,70.312,19.043
1584599725.751,31.250,45.410,31.738,42.480,-22.461
1584599725.755,12.207,41.992,30.273,-12.695,-3.418
1584599725.759,32.227,40.039,29.785,11.230,62.988
1584599725.763,54.199,39.062,31.738,64.941,23.926
1584599725.767,36.621,39.551,33.691,45.410,2.930
1584599725.770,7.324,39.551,31.738,-9.277,35.645
1584599725.774,16.602,36.133,31.738,-3.418,54.199
1584599725.778,48.340,39.062,34.180,64.941,77.637
1584599725.782,53.711,43.945,36.133,76.172,72.266
1584599725.786,26.855,42.969,33.203,10.254,36.621
1584599725.790,20.508,40.039,31.738,-22.461,8.301
1584599725.794,46.875,39.551,37.109,34.668,23.926
1584599725.798,54.199,40.527,36.621,73.730,40.039
1584599725.802,35.156,36.133,30.762,19.531,0.000
1584599725.806,19.043,33.691,32.227,-32.715,7.812
1584599725.810,26.367,35.645,34.668,1.465,62.012
1584599725.813,40.527,37.109,34.180,61.035,72.266
1584599725.817,27.344,31.738,29.297,37.598,78.125
1584599725.821,11.230,24.414,23.438,-22.949,94.727
1584599725.825,24.414,25.391,24.414,-7.812,59.570
1584599725.829,41.992,30.273,27.832,58.105,62.012
1584599725.833,36.621,26.367,28.809,59.082,37.109
1584599725.837,18.066,14.160,28.809,-4.883,6.836
1584599725.841,20.996,11.719,29.297,-18.555,-23.438
1584599725.845,45.898,16.113,35.645,52.246,-2.930
1584599725.849,39.062,10.742,35.156,81.543,47.852
1584599725.852,9.766,5.371,28.809,18.066,83.984
1584599725.856,7.812,6.348,28.809,-24.414,65.430
1584599725.860,34.180,8.789,30.762,34.180,24.902
1584599725.864,46.875,7.812,27.832,76.172,24.414
1584599725.868,22.461,2.930,22.949,22.949,-14.160
1584599725.872,13.672,-0.488,25.879,-21.484,16.602
1584599725.876,43.945,0.000,25.391,15.625,46.875
1584599725.880,63.965,3.906,24.414,73.242,21.973
1584599725.884,44.922,0.000,27.832,58.594,37.598
1584599725.888,17.578,-5.371,26.367,-3.906,78.125
1584599725.892,25.879,-1.465,26.855,3.418,47.363
1584599725.895,49.316,-0.977,29.297,56.641,43.457
1584599725.899,46.875,-5.859,27.344,46.875,59.570
1584599725.903,35.645,-9.766,22.461,-2.930,73.730
1584599725.907,45.898,-10.254,20.020,-3.906,44.434
1584599725.911,52.734,-13.184,27.832,39.551,17.578
1584599725.915,40.527,-15.625,33.691,49.316,12.207
1584599725.919,17.578,-20.020,30.762,4.883,16.113
1584599725.923,8.301,-27.344,28.809,-30.762,49.805
1584599725.927,31.250,-26.367,31.250,16.602,29.297
1584599725.931,41.992,-20.508,32.227,62.012,-7.812
1584599725.935,26.855,-20.996,32.715,24.414,4.395
1584599725.938,24.902,-26.855,32.715,-23.926,23.926
1584599725.942,47.363,-27.344,32.227,-0.488,-5.371
1584599725.946,61.035,-22.949,31.250,55.176,15.625
1584599725.950,45.410,-23.438,30.762,43.457,16.113
1584599725.954,21.484,-25.879,26.367,-16.113,9.766
1584599725.958,32.715,-23.438,20.996,-20.996,9.277
1584599725.962,55.664,-19.043,22.949,45.898,-1.953
1584599725.966,52.734,-21.973,23.438,64.453,26.855
1584599725.970,19.043,-27.344,21.973,10.254,49.316
1584599725.974,6.836,-21.484,25.879,-4.883,59.082
1584599725.977,42.480,-14.160,30.273,51.270,104.980
1584599725.981,55.664,-15.137,33.203,81.055,70.312
1584599725.985,22.949,-26.367,29.297,25.879,23.438
1584599725.989,-5.859,-35.645,25.391,-16.602,57.617
1584599725.993,13.672,-26.855,28.809,26.855,73.242
1584599725.997,41.016,-18.066,28.809,76.172,35.645
1584599726.001,30.762,-20.020,29.785,42.969,42.969
1584599726.005,10.742,-21.973,32.715,-23.438,24.414
1584599726.009,25.879,-14.648,31.738,1.953,-16.113
1584599726.013,44.922,-9.766,32.227,74.707,-20.020
1584599726.017,29.785,-13.184,33.203,63.477,-19.531
1584599726.020,9.277,-14.160,31.738,-2.441,-2.441
1584599726.024,19.531,-8.789,35.645,-2.930,-4.883
1584599726.028,46.387,-2.441,35.645,62.012,-12.207
1584599726.032,42.480,-6.348,30.762,75.684,-0.488
1584599726.036,17.578,-12.207,27.832,9.766,21.973
1584599726.040,14.648,-10.742,29.297,-18.555,39.062
1584599726.044,37.109,-7.324,33.203,43.457,49.805
1584599726.048,45.410,-2.441,29.785,76.660,20.996
1584599726.052,24.902,-2.441,25.879,29.785,24.902
1584599726.056,6.348,-9.277,22.949,-14.648,13.184
1584599726.060,20.020,-0.977,21.973,19.043,-12.207
1584599726.063,36.621,9.277,21.973,71.777,-3.418
1584599726.067,25.879,14.648,25.391,55.664,-5.859
1584599726.071,14.160,9.766,24.414,1.953,-3.418
1584599726.075,19.043,-0.488,18.555,5.859,2.441
1584599726.079,33.691,7.812,19.043,67.383,-22.461
1584599726.083,20.508,13.672,17.090,63.965,2.930
1584599726.087,-1.465,7.324,16.602,-0.977,83.984
1584599726.091,14.160,5.371,16.113,-14.648,104.980
1584599726.095,43.457,13.184,11.719,46.387,19.043
1584599726.099,35.645,20.508,13.184,74.707,24.902
1584599726.102,9.277,20.508,19.043,24.902,35.645
1584599726.106,-7.324,16.602,17.578,-9.277,-5.859
1584599726.110,9.277,18.066,14.160,24.414,17.578
1584599726.114,30.762,24.414,14.648,62.500,20.508
1584599726.118,17.090,18.066,14.648,28.320,16.602
1584599726.122,24.414,15.625,18.066,-12.207,-17.578
1584599726.126,41.992,33.203,20.020,14.160,-3.418
1584599726.130,25.879,38.574,16.602,44.922,66.895
1584599726.134,-2.441,25.879,16.113,18.555,33.691
1584599726.138,-21.484,21.484,19.043,-39.062,35.645
1584599726.142,-5.859,33.691,24.902,-27.832,58.594
1584599726.145,19.043,44.434,26.367,49.316,60.547
1584599726.149,14.160,39.551,20.020,51.758,71.289
1584599726.153,-7.324,31.250,16.602,-20.020,62.500
1584599726.157,-5.371,33.203,18.555,-28.809,28.809
1584599726.161,20.996,41.016,19.531,38.086,0.000
1584599726.165,15.137,44.434,19.043,62.500,1.465
1584599726.169,-17.090,35.156,17.578,3.906,38.574
1584599726.173,-23.438,32.715,21.484,-29.297,62.012
1584599726.177,0.000,40.527,26.367,26.367,48.828
1584599726.181,14.160,41.992,25.879,72.266,-0.977
1584599726.185,6.836,40.527,23.926,25.879,-6.348
1584599726.188,-8.301,38.574,25.391,-28.809,37.109
1584599726.192,-0.977,35.645,28.809,0.977,65.430
1584599726.196,24.414,41.016,30.273,66.406,32.715
1584599726.200,18.066,41.016,27.832,58.594,-33.691
1584599726.204,-5.859,35.156,20.996,-7.812,-16.602
1584599726.208,0.977,32.715,20.996,-8.301,12.695
1584599726.212,32.227,36.133,23.926,57.129,35.645
1584599726.216,31.738,38.086,23.926,68.359,56.641
1584599726.220,1.953,34.668,25.879,11.719,36.133
1584599726.224,2.930,39.551,26.367,-19.043,-21.973
1584599726.227,22.461,43.945,28.320,23.926,57.617
1584599726.231,29.785,41.016,31.738,58.105,83.496
1584599726.235,20.508,39.062,32.715,20.996,57.617
1584599726.239,6.836,39.062,32.715,-19.043,51.758
1584599726.243,19.531,41.504,33.203,22.461,28.320
1584599726.247,35.156,41.016,33.691,73.242,41.992
1584599726.251,24.414,38.574,32.715,35.645,-19.531
1584599726.255,9.766,39.551,29.297,-24.414,15.625
1584599726.259,18.555,44.434,29.785,-4.883,49.805
1584599726.263,35.645,41.992,33.691,61.035,4.883
1584599726.267,29.785,40.527,31.738,59.570,11.719
1584599726.270,15.137,41.016,32.227,-1.953,25.391
1584599726.274,16.602,35.645,29.785,-16.113,7.324
1584599726.278,32.227,36.133,22.461,42.969,11.719
1584599726.282,34.668,35.645,17.578,64.453,39.551
1584599726.286,9.766,27.832,19.043,5.859,62.012
1584599726.290,11.230,22.949,19.531,-25.391,15.625
1584599726.294,37.109,30.762,20.020,35.645,14.160
1584599726.298,35.645,34.668,23.438,78.613,90.332
1584599726.302,14.160,30.273,24.414,33.691,61.035
1584599726.306,1.465,32.715,23.926,-9.766,17.578
1584599726.310,14.160,35.645,26.367,26.367,80.078
1584599726.313,24.902,34.668,24.902,80.078,63.965
1584599726.317,15.625,36.133,25.391,50.781,-24.902
1584599726.321,2.441,33.691,23.438,-12.207,-7.812
1584599726.325,18.066,37.109,19.043,1.953,76.660
1584599726.329,42.969,41.992,21.973,71.289,41.992
1584599726.333,30.273,40.039,23.926,62.500,29.297
1584599726.337,2.930,42.969,23.926,-13.672,57.617
1584599726.341,9.766,42.969,27.344,-19.043,8.789
1584599726.345,39.062,43.457,33.691,49.805,1.465
1584599726.349,41.992,45.410,35.156,77.637,52.734
1584599726.352,15.625,43.457,27.344,19.531,74.707
1584599726.356,8.301,43.945,22.949,-27.344,25.879
1584599726.360,37.109,41.992,29.297,25.391,21.973
1584599726.364,45.898,37.109,36.133,72.754,55.664
1584599726.368,29.297,35.645,36.621,28.320,21.973
1584599726.372,20.508,37.109,35.156,-17.578,9.766
1584599726.376,29.785,37.109,29.785,7.812,25.879
1584599726.380,41.016,31.738,25.879,62.500,6.348
1584599726.384,26.855,26.855,28.320,45.898,29.297
1584599726.388,1.953,27.344,25.879,-19.531,44.434
1584599726.392,14.160,32.227,28.320,-8.301,13.672
1584599726.395,34.180,32.715,33.691,63.477,-14.160
1584599726.399,22.461,31.738,30.762,71.777,24.414
1584599726.403,3.418,24.414,26.855,9.766,42.969
1584599726.407,5.859,24.902,29.785,-12.207,2.441
1584599726.411,28.809,28.320,33.203,50.781,37.109
1584599726.415,34.668,28.809,31.738,88.379,48.828
1584599726.419,17.578,28.320,25.391,34.180,35.645
1584599726.423,21.484,23.438,26.855,-9.766,51.758
1584599726.427,41.504,30.762,32.227,31.250,71.289
1584599726.431,44.922,35.645,24.414,68.848,29.785
1584599726.435,32.715,27.832,20.020,33.203,5.859
1584599726.438,13.184,25.879,20.996,-19.043,38.086
1584599726.442,18.066,31.738,21.484,4.883,24.902
1584599726.446,42.480,32.227,26.855,70.801,40.039
1584599726.450,39.062,24.902,28.809,59.570,56.152
1584599726.454,16.602,22.461,23.926,-11.719,37.109
1584599726.458,23.926,25.879,24.414,-12.695,-28.809
1584599726.462,43.945,24.902,27.344,54.688,-60.059
1584599726.466,35.645,21.973,24.414,67.871,7.324
1584599726.470,17.578,17.578,20.996,0.488,-6.348
1584599726.474,16.113,21.484,24.902,-27.344,18.555
1584599726.477,34.668,28.809,26.855,37.598,63.965
1584599726.481,45.410,28.809,23.926,77.637,39.062
1584599726.485,25.391,24.902,21.484,27.344,92.773
1584599726.489,16.113,27.344,24.902,-17.578,90.820
1584599726.493,41.992,31.250,24.902,20.020,42.480
1584599726.497,49.805,26.855,21.973,69.824,11.230
1584599726.501,30.762,22.949,20.996,42.480,-26.855
1584599726.505,22.461,21.484,18.555,-17.578,-17.578
1584599726.509,34.180,19.531,19.043,-0.488,12.695
1584599726.513,47.852,21.973,21.973,61.523,-14.648
1584599726.517,32.715,28.320,22.461,59.570,-29.785
1584599726.520,-1.465,27.832,19.043,0.977,65.430
1584599726.524,2.441,24.902,18.555,-7.812,59.082
1584599726.528,35.156,28.809,25.879,65.918,1.953
1584599726.532,41.504,27.344,28.320,88.867,34.668
1584599726.536,11.230,19.043,20.020,24.902,76.172
1584599726.540,7.324,19.531,16.602,-20.996,57.129
1584599726.544,41.504,29.297,21.484,25.391,20.020
1584599726.548,50.781,30.273,21.973,74.707,21.484
1584599726.552,33.203,22.949,19.531,30.273,3.906
1584599726.556,24.902,20.508,21.973,-21.484,-10.254
1584599726.560,37.598,26.367,23.926,10.254,20.996
1584599726.563,55.664,31.738,29.297,72.266,8.789
1584599726.567,43.457,31.738,33.691,58.594,43.945
1584599726.571,21.973,27.832,27.344,-4.395,35.156
1584599726.575,34.180,20.996,21.973,-0.488,-8.789
1584599726.579,58.594,23.926,24.414,64.453,-14.160
1584599726.583,49.316,22.949,27.344,66.406,54.688
1584599726.587,20.508,17.578,27.344,1.953,70.312
1584599726.591,21.973,17.578,28.809,-12.695,14.160
1584599726.595,51.270,20.996,29.785,49.805,39.062
1584599726.599,56.152,22.461,29.785,78.125,33.691
1584599726.602,35.645,21.484,34.668,20.996,68.848
1584599726.606,26.367,25.391,31.250,-20.996,47.852
1584599726.610,42.969,25.391,24.414,33.691,16.113
1584599726.614,53.711,25.879,29.785,86.914,13.184
1584599726.618,31.250,23.926,26.367,41.016,-32.715
1584599726.622,11.230,19.043,16.602,-20.508,37.598
1584599726.626,27.344,22.461,18.555,7.812,91.309
1584599726.630,45.898,25.879,21.973,71.777,56.152
1584599726.634,39.551,21.484,19.531,56.152,60.059
1584599726.638,20.508,16.113,21.484,-6.836,39.062
1584599726.642,19.531,21.973,22.949,-0.488,61.523
1584599726.645,40.039,26.367,20.508,66.895,45.898
1584599726.649,37.109,18.555,20.996,69.824,-27.344
1584599726.653,9.277,16.602,19.531,3.418,24.414
1584599726.657,2.441,22.461,19.043,-15.625,95.703
1584599726.661,29.785,23.926,22.461,41.504,64.941
1584599726.665,39.062,20.996,24.414,73.242,66.406
1584599726.669,18.555,19.531,25.391,24.414,87.402
1584599726.673,14.648,22.461,26.367,-18.555,61.523
1584599726.677,35.645,26.855,29.785,24.902,-1.953
1584599726.681,45.898,32.715,33.691,77.148,4.395
1584599726.685,27.344,28.809,34.180,46.875,76.172
1584599726.688,9.277,15.137,31.738,-15.137,70.312
1584599726.692,20.508,14.648,30.762,-3.418,33.203
1584599726.696,33.691,23.926,28.809,65.430,59.570
1584599726.700,25.879,25.879,24.902,59.082,58.105
1584599726.704,11.719,22.461,24.902,-9.766,12.695
1584599726.708,20.020,22.949,23.438,-17.090,40.039
1584599726.712,46.387,30.762,27.344,49.805,30.273
1584599726.716,48.828,31.250,28.809,67.383,2.930
1584599726.720,26.855,26.855,24.902,5.859,27.344
1584599726.724,24.902,27.832,28.320,-20.508,34.180
1584599726.727,51.270,29.785,30.762,34.180,53.223
1584599726.731,64.453,25.879,26.367,72.266,32.715
1584599726.735,42.480,21.484,23.926,27.832,23.438
1584599726.739,24.902,22.461,24.902,-18.555,59.082
1584599726.743,40.527,23.438,28.809,20.996,39.062
1584599726.747,41.992,23.926,32.715,87.402,20.508
1584599726.751,19.043,22.949,29.785,59.082,19.043
1584599726.755,-0.977,21.484,27.832,-15.137,24.902
1584599726.759,15.625,19.043,31.250,7.812,-8.789
1584599726.763,64.453,19.043,34.180,101.562,11.230
1584599726.767,72.266,26.367,34.668,103.516,39.062
1584599726.770,33.203,30.762,25.879,9.766,-0.977
1584599726.774,20.996,28.320,21.973,-22.949,19.531
1584599726.778,37.598,33.203,24.414,48.340,57.129
1584599726.782,26.855,36.621,22.461,72.754,35.645
1584599726.786,1.953,31.250,21.973,5.859,-13.184
1584599726.790,-0.977,31.738,20.508,-26.855,-42.969
1584599726.794,32.715,38.574,23.438,30.273,0.000
1584599726.798,52.734,42.969,25.391,66.406,20.020
1584599726.802,44.434,45.898,21.973,21.484,-60.059
1584599726.806,40.527,47.852,19.043,-26.367,-5.859
1584599726.810,53.223,52.734,16.602,2.930,93.262
1584599726.813,65.430,54.199,14.648,64.941,66.406
1584599726.817,60.547,53.223,13.672,44.434,51.758
1584599726.821,47.363,55.176,13.184,-20.508,19.043
1584599726.825,60.059,58.594,14.648,-19.043,-8.789
1584599726.829,90.820,60.547,12.695,47.852,80.078
1584599726.833,83.008,58.594,9.277,59.082,80.078
1584599726.837,38.574,53.223,13.184,5.371,-0.488
1584599726.841,13.184,52.246,19.531,-4.883,71.289
1584599726.845,39.551,54.688,21.973,56.152,74.707
1584599726.849,57.617,55.664,16.602,88.379,34.180
1584599726.852,42.480,53.711,16.602,40.527,41.992
1584599726.856,39.062,48.828,18.555,-0.977,-7.324
1584599726.860,59.082,50.781,15.137,40.039,34.180
1584599726.864,80.078,54.688,14.648,96.191,62.988
1584599726.868,78.613,53.223,15.625,68.359,2.930
1584599726.872,61.523,51.758,15.137,2.930,24.902
1584599726.876,80.078,56.152,11.719,23.926,40.527
1584599726.880,109.375,56.152,11.230,93.750,-31.738
1584599726.884,100.098,48.828,9.766,76.660,-1.465
1584599726.888,83.496,45.898,8.789,4.395,74.707
1584599726.892,87.402,48.828,13.672,2.441,17.578
1584599726.895,102.051,51.270,19.043,72.754,15.625
1584599726.899,104.004,52.734,19.043,88.379,47.852
1584599726.903,91.797,50.293,17.578,20.508,11.230
1584599726.907,95.703,49.316,17.578,-7.812,-8.301
1584599726.911,104.004,53.711,20.996,58.594,-5.859
1584599726.915,95.215,51.758,28.809,95.703,-22.949
1584599726.919,72.754,44.922,25.391,34.668,-27.832
1584599726.923,68.848,43.457,20.508,-15.625,-7.812
1584599726.927,91.309,47.363,24.902,31.250,13.184
1584599726.931,103.516,45.410,24.414,93.262,47.363
1584599726.935,73.730,36.621,24.414,55.176,41.016
1584599726.938,42.480,35.156,26.855,-7.812,39.551
1584599726.942,50.293,37.598,30.762,23.926,54.199
1584599726.946,58.594,41.504,35.645,100.098,34.668
1584599726.950,53.711,39.551,32.715,84.961,8.789
1584599726.954,41.992,35.156,25.879,5.859,50.781
1584599726.958,49.805,34.180,22.461,-1.465,29.785
1584599726.962,63.477,37.598,24.902,71.289,-22.461
1584599726.966,59.570,38.574,30.273,92.285,22.461
1584599726.970,47.363,34.668,27.344,23.438,59.082
1584599726.974,51.270,33.691,23.438,-6.348,87.891
1584599726.977,76.660,38.574,25.391,61.523,74.707
1584599726.981,86.914,40.527,26.367,97.168,62.500
1584599726.985,66.406,35.645,27.832,41.504,56.152
1584599726.989,46.875,30.273,24.414,-10.742,49.316
1584599726.993,54.688,26.855,22.949,25.879,28.320
1584599726.997,61.035,27.832,25.879,86.914,-23.438
1584599727.001,50.781,27.832,25.391,54.199,-19.531
1584599727.005,30.273,26.855,23.438,-16.602,26.367
1584599727.009,32.227,28.320,23.926,3.418,83.984
1584599727.013,48.828,28.809,25.879,76.660,45.898
1584599727.017,44.434,24.414,29.297,72.266,-7.324
1584599727.020,26.855,20.996,27.832,-4.395,18.066
1584599727.024,30.273,27.344,27.344,-22.949,17.578
1584599727.028,45.410,33.691,28.809,57.617,-15.137
1584599727.032,46.875,26.855,26.855,87.891,-13.184
1584599727.036,26.855,18.066,26.367,17.090,68.848
1584599727.040,19.531,20.996,24.902,-19.531,108.398
1584599727.044,42.969,29.297,24.902,45.410,25.391
1584599727.048,53.223,30.273,26.855,91.797,16.602
1584599727.052,34.180,26.855,30.762,35.645,26.855
1584599727.056,9.277,28.320,30.273,-20.996,23.438
1584599727.060,10.254,31.250,28.809,20.020,23.438
1584599727.063,27.344,33.691,29.297,89.355,-27.344
1584599727.067,24.414,33.203,27.344,60.059,-1.953
1584599727.071,16.602,27.344,23.926,-19.043,-11.230
1584599727.075,25.879,28.320,21.484,-6.836,-29.785
1584599727.079,36.133,33.691,25.879,77.148,12.695
1584599727.083,31.738,33.203,27.832,79.590,10.742
1584599727.087,20.996,29.785,25.879,1.465,19.043
1584599727.091,23.438,27.344,28.809,-14.648,93.262
1584599727.095,42.480,30.762,30.762,60.059,67.383
1584599727.099,50.781,29.785,30.762,92.773,32.715
1584599727.102,34.668,21.484,29.297,22.461,31.738
1584599727.106,25.391,22.949,25.879,-25.879,39.062
1584599727.110,36.621,27.832,27.344,35.645,59.570
1584599727.114,41.504,29.297,28.320,96.680,42.480
1584599727.118,29.297,22.949,25.879,50.781,44.434
1584599727.122,23.438,20.996,28.320,-15.137,52.734
1584599727.126,29.785,25.391,28.320,10.742,31.738
1584599727.130,31.738,27.344,28.809,78.125,62.012
1584599727.134,20.996,26.367,29.785,65.918,39.551
1584599727.138,2.441,21.973,29.785,-5.859,-16.602
1584599727.142,7.812,25.391,35.156,0.488,14.648
1584599727.145,34.180,27.344,39.062,92.285,16.113
1584599727.149,37.598,25.879,34.180,113.770,30.762
1584599727.153,2.441,28.320,27.344,16.113,35.645
1584599727.157,-19.043,26.855,25.391,-35.645,-37.109
1584599727.161,0.488,30.273,26.367,40.039,-29.785
1584599727.165,12.207,33.691,26.855,88.867,28.809
1584599727.169,1.465,31.250,22.461,18.066,33.691
1584599727.173,-9.277,29.785,15.625,-54.199,10.742
1584599727.177,3.906,33.203,19.531,3.418,58.594
1584599727.181,22.461,33.203,23.438,79.590,71.777
1584599727.185,20.508,28.809,20.508,35.645,27.344
1584599727.188,14.648,26.855,21.973,-43.945,41.504
1584599727.192,25.879,31.738,28.320,-13.672,46.387
1584599727.196,33.203,32.227,24.902,69.824,20.508
1584599727.200,23.438,26.855,20.508,55.664,36.621
1584599727.204,9.277,24.414,19.531,-26.855,32.715
1584599727.208,9.277,26.367,17.090,-33.691,14.160
1584599727.212,31.738,33.203,19.043,51.270,25.879
1584599727.216,30.273,29.785,23.438,74.707,9.277
1584599727.220,0.000,22.461,20.996,-7.324,7.324
1584599727.224,-10.742,26.855,20.508,-40.039,59.570
1584599727.227,5.859,30.273,23.438,36.621,48.828
1584599727.231,18.066,30.762,21.973,85.938,17.090
1584599727.235,-1.953,27.832,15.137,24.902,23.438
1584599727.239,-15.137,25.879,13.672,-31.250,11.230
1584599727.243,8.301,30.762,19.043,23.926,-12.207
1584599727.247,29.785,31.738,19.043,92.285,47.852
1584599727.251,20.020,25.391,18.555,57.129,66.895
1584599727.255,3.906,21.484,18.555,-22.949,12.695
1584599727.259,16.113,28.320,21.973,-2.441,13.672
1584599727.263,40.039,33.203,25.391,79.102,24.414
1584599727.267,29.297,27.344,16.602,62.012,27.344
1584599727.270,11.719,28.320,3.906,-13.672,61.035
1584599727.274,37.109,32.227,6.836,3.906,17.090
1584599727.278,59.570,31.250,25.391,89.355,-9.277
1584599727.282,32.227,22.949,32.715,87.402,54.688
1584599727.286,-4.883,15.137,27.344,-3.906,63.477
1584599727.290,-9.277,12.207,23.438,-49.805,42.969
1584599727.294,11.719,17.578,27.832,18.555,74.707
1584599727.298,18.555,17.578,35.645,82.520,62.988
1584599727.302,-4.395,6.836,35.156,31.738,47.852
1584599727.306,-28.809,0.000,32.227,-53.223,58.594
1584599727.310,-22.949,2.930,30.273,-32.715,45.898
1584599727.313,-6.836,5.371,36.621,57.129,55.664
1584599727.317,-25.879,5.371,39.062,47.852,93.262
1584599727.321,-52.734,4.883,34.180,-27.344,28.809
1584599727.325,-32.227,7.324,34.180,-8.789,-5.371
1584599727.329,-8.301,11.230,36.133,77.148,24.414
1584599727.333,-11.719,12.695,33.691,79.102,0.488
1584599727.337,-30.762,12.695,31.250,-5.371,13.672
1584599727.341,-23.926,14.160,33.691,-27.344,17.090
1584599727.345,14.160,19.043,36.133,53.223,17.578
1584599727.349,24.414,20.996,32.715,86.914,-8.301
1584599727.352,-1.465,16.113,28.809,7.812,-26.367
1584599727.356,-6.836,15.137,30.762,-45.410,45.410
1584599727.360,29.297,20.508,34.668,18.066,18.555
1584599727.364,50.781,20.996,35.645,83.008,-14.160
1584599727.368,39.062,20.996,34.180,42.969,37.598
1584599727.372,26.367,23.438,33.691,-26.367,39.062
1584599727.376,34.668,26.855,31.738,6.836,20.020
1584599727.380,51.758,27.832,32.227,88.379,73.242
1584599727.384,24.902,21.484,35.156,68.848,42.480
1584599727.388,-12.207,15.137,32.715,-12.695,0.000
1584599727.392,4.883,20.020,29.785,-11.230,37.109
1584599727.395,29.297,21.484,29.297,72.266,20.996
1584599727.399,16.602,17.578,29.297,87.402,34.180
1584599727.403,-13.184,18.066,28.320,11.719,65.918
1584599727.407,-11.719,18.555,26.855,-16.602,-1.953
1584599727.411,18.066,23.926,31.250,60.059,-35.645
1584599727.415,26.367,24.414,33.203,105.957,16.602
1584599727.419,4.883,18.555,26.367,35.645,43.457
1584599727.423,-6.348,18.066,22.461,-25.391,74.707
1584599727.427,19.043,21.973,24.902,24.414,40.527
1584599727.431,40.039,25.879,25.879,88.867,-21.973
1584599727.435,22.461,23.926,23.438,53.711,28.809
1584599727.438,0.977,19.043,20.508,-19.043,65.918
1584599727.442,15.137,20.996,22.461,2.930,41.016
1584599727.446,43.945,23.438,26.855,82.031,-17.578
1584599727.450,38.086,21.484,26.855,73.730,-16.113
1584599727.454,14.160,19.043,27.832,-8.789,-19.043
1584599727.458,24.902,20.508,28.320,-20.020,8.301
1584599727.462,53.711,23.438,32.715,68.848,70.312
1584599727.466,48.340,20.508,32.715,92.773,68.359
1584599727.470,16.113,18.066,23.926,8.789,12.207
1584599727.474,15.625,20.508,21.973,-31.738,17.090
1584599727.477,40.527,25.391,30.273,42.969,3.418
1584599727.481,31.738,24.414,30.273,100.586,1.953
1584599727.485,-4.883,16.602,23.438,37.598,28.320
1584599727.489,-21.973,15.625,20.996,-34.668,-1.953
1584599727.493,2.441,21.484,20.508,12.695,40.527
1584599727.497,32.715,23.926,22.949,97.168,34.180
1584599727.501,16.602,17.090,21.973,60.059,-21.484
1584599727.505,-15.137,13.184,20.996,-30.762,39.551
1584599727.509,2.441,22.949,22.461,-12.695,32.715
1584599727.513,39.062,26.367,26.855,78.613,-1.465
1584599727.517,32.715,18.066,30.273,83.984,19.531
1584599727.520,-2.441,16.602,24.902,-6.836,32.227
1584599727.524,-0.977,20.996,23.926,-33.203,-25.879
1584599727.528,36.133,20.020,28.809,52.734,-39.551
1584599727.532,43.457,17.578,25.879,87.402,33.691
1584599727.536,12.207,13.672,21.484,5.371,2.930
1584599727.540,8.301,14.648,24.414,-42.969,2.930
1584599727.544,34.180,19.043,27.344,37.598,73.730
1584599727.548,43.945,20.508,24.902,96.680,36.133
1584599727.552,21.484,21.484,18.066,25.879,21.484
1584599727.556,2.441,16.602,10.742,-45.898,17.578
1584599727.560,47.363,16.602,18.066,31.738,17.090
1584599727.563,63.965,16.602,35.645,124.023,81.543
1584599727.567,-2.441,11.719,31.738,51.758,38.574
1584599727.571,-34.668,8.301,22.949,-49.805,10.742
1584599727.575,-12.695,8.789,28.809,-30.273,27.832
1584599727.579,7.812,11.230,35.645,51.758,65.918
1584599727.583,0.000,6.348,36.621,54.199,68.359
1584599727.587,-40.527,-4.883,36.133,-44.922,16.113
1584599727.591,-48.340,-6.836,36.133,-81.055,-25.391
1584599727.595,-20.996,4.395,41.504,15.137,5.859
1584599727.599,-18.066,9.766,47.852,70.312,44.922
1584599727.602,-56.641,-3.418,40.527,-17.578,12.695
1584599727.606,-89.844,-11.719,33.691,-93.750,17.090
1584599727.610,-57.617,-8.789,38.086,-17.578,32.227
1584599727.614,-36.133,-9.277,40.039,57.617,31.250
1584599727.618,-62.500,-14.160,37.598,-1.953,-5.859
1584599727.622,-71.289,-13.672,39.551,-75.195,-30.273
1584599727.626,-37.598,-8.301,42.969,-29.297,40.039
1584599727.630,-4.883,-6.836,40.527,63.965,39.062
1584599727.634,-19.043,-10.254,37.109,42.969,-13.672
1584599727.638,-48.340,-10.254,36.133,-52.734,40.039
1584599727.642,-33.203,-1.465,36.133,-51.270,76.172
1584599727.645,7.812,5.859,37.109,54.199,36.133
1584599727.649,7.324,6.836,35.156,79.102,-13.672
1584599727.653,-21.484,4.883,32.715,-14.648,-5.859
1584599727.657,-20.508,4.395,34.180,-47.363,0.488
1584599727.661,10.742,5.371,34.180,42.480,26.855
1584599727.665,18.555,9.277,28.320,92.773,23.926
1584599727.669,-10.254,12.207,29.297,23.926,-18.555
1584599727.673,-22.461,11.230,28.809,-42.480,-33.203
1584599727.677,4.883,12.695,25.879,14.160,13.184
1584599727.681,22.949,9.766,28.809,90.332,46.387
1584599727.685,4.395,5.371,28.320,41.992,44.434
1584599727.688,-19.531,7.324,27.344,-42.480,76.172
1584599727.692,3.418,11.230,28.809,-6.836,76.172
1584599727.696,42.969,14.160,31.250,98.145,65.430
1584599727.700,36.133,18.066,29.785,89.844,11.719
1584599727.704,5.371,18.555,26.367,-10.742,16.602
1584599727.708,13.672,18.555,25.391,-14.160,52.246
1584599727.712,43.457,23.438,31.738,87.891,20.508
1584599727.716,39.062,22.949,29.785,107.422,40.527
1584599727.720,5.859,16.113,22.461,12.207,79.590
1584599727.724,0.488,16.113,24.414,-29.785,60.059
1584599727.727,35.645,21.484,25.879,45.898,26.855
1584599727.731,51.270,26.855,24.902,103.027,27.832
1584599727.735,19.531,21.973,22.949,42.969,49.805
1584599727.739,-9.277,16.602,20.020,-28.809,51.758
1584599727.743,15.137,23.438,21.973,23.926,30.762
1584599727.747,42.969,30.273,24.414,108.887,-13.672
1584599727.751,25.879,28.809,22.949,77.148,-22.461
1584599727.755,-1.953,22.949,20.996,-14.160,25.879
1584599727.759,10.742,22.949,19.043,-2.930,105.469
1584599727.763,43.945,23.438,20.996,91.309,80.566
1584599727.767,37.598,22.461,22.949,90.820,25.879
1584599727.770,9.277,19.531,20.020,-4.883,8.789
1584599727.774,20.508,21.973,22.461,-19.043,13.672
1584599727.778,31.738,25.879,29.785,57.129,28.320
1584599727.782,10.742,20.020,29.785,74.707,18.066
1584599727.786,-6.348,13.184,25.879,7.812,49.805
1584599727.790,-6.836,16.113,27.344,-33.691,62.500
1584599727.794,13.184,25.391,30.273,23.438,45.410
1584599727.798,33.203,30.273,28.320,86.914,25.391
1584599727.802,12.207,24.902,23.438,33.691,37.109
1584599727.806,-15.137,20.996,20.508,-47.363,5.371
1584599727.810,12.695,25.879,23.926,1.953,-30.273
1584599727.813,42.480,27.344,29.297,96.191,-1.465
1584599727.817,23.926,21.973,27.832,61.035,4.395
1584599727.821,-4.395,20.020,25.391,-33.691,20.508
1584599727.825,7.324,24.902,27.832,-19.531,60.547
1584599727.829,39.551,27.344,27.344,77.148,70.312
1584599727.833,29.785,21.484,21.484,79.590,48.828
1584599727.837,-9.277,20.508,20.020,-19.043,52.246
1584599727.841,-10.254,24.414,21.484,-44.434,-0.488
1584599727.845,31.738,26.367,17.578,42.969,18.066
1584599727.849,46.875,31.250,19.531,91.797,88.867
1584599727.852,12.207,28.320,22.461,14.160,63.477
1584599727.856,-7.812,23.438,17.090,-53.711,70.312
1584599727.860,21.484,24.902,16.602,9.766,42.969
1584599727.864,41.992,23.438,20.508,82.520,-9.277
1584599727.868,15.625,23.438,18.066,36.621,7.324
1584599727.872,-14.648,23.438,14.648,-46.387,47.363
1584599727.876,6.348,23.438,17.090,-11.230,48.828
1584599727.880,40.527,25.391,23.926,80.566,25.879
1584599727.884,30.762,26.367,25.879,65.430,52.734
1584599727.888,-5.371,24.414,21.484,-26.855,49.805
1584599727.892,-0.977,25.879,19.043,-29.785,27.832
1584599727.895,38.574,34.668,18.555,64.941,73.242
1584599727.899,36.621,30.273,17.090,83.984,102.539
1584599727.903,-3.418,19.043,13.672,-7.324,45.898
1584599727.907,-9.277,22.461,18.066,-42.480,6.836
1584599727.911,27.344,33.203,23.438,46.387,18.066
1584599727.915,37.109,32.227,20.508,92.773,20.508
1584599727.919,4.395,21.484,18.066,18.555,-19.531
1584599727.923,-17.090,15.625,20.020,-48.340,-66.406
1584599727.927,15.625,25.879,24.414,11.719,-19.043
1584599727.931,45.898,31.250,25.879,98.633,52.246
1584599727.935,27.344,25.391,20.996,55.176,-2.441
1584599727.938,-3.418,20.508,20.020,-35.156,-48.340
1584599727.942,20.508,20.508,24.414,-4.883,-31.250
1584599727.946,58.105,23.926,24.902,92.285,-5.859
1584599727.950,39.062,25.391,22.949,83.496,24.902
1584599727.954,0.488,20.508,23.438,-14.160,31.738
1584599727.958,1.465,19.043,20.996,-28.320,41.992
1584599727.962,35.645,26.367,23.438,72.754,-3.906
1584599727.966,35.645,28.320,24.902,100.586,-29.297
1584599727.970,-1.465,20.996,20.020,4.395,1.953
1584599727.974,-8.301,19.043,20.020,-41.504,20.020
1584599727.977,25.879,19.531,20.020,39.551,-7.324
1584599727.981,43.945,19.531,20.508,101.562,-15.625
1584599727.985,19.531,20.996,19.531,39.062,10.742
1584599727.989,-0.977,20.508,21.484,-35.645,27.344
1584599727.993,22.949,20.020,25.391,16.113,-0.977
1584599727.997,58.105,26.367,24.902,103.027,-13.672
1584599728.001,47.852,26.855,26.367,74.707,48.828
1584599728.005,6.348,19.531,28.320,-24.414,86.426
1584599728.009,6.348,21.484,26.367,-22.949,46.875
1584599728.013,38.574,25.879,25.879,70.801,19.043
1584599728.017,34.668,22.949,27.344,74.707,12.695
1584599728.020,2.441,19.531,23.926,-14.648,12.695
1584599728.024,6.348,20.996,20.020,-32.227,-3.906
1584599728.028,39.062,25.391,21.973,59.082,-29.785
1584599728.032,38.086,25.879,20.996,93.262,24.414
1584599728.036,3.906,18.066,18.555,16.113,57.617
1584599728.040,-9.277,14.160,17.090,-39.062,14.648
1584599728.044,22.949,19.531,18.066,26.855,14.160
1584599728.048,41.016,24.414,19.531,95.215,19.531
1584599728.052,13.672,20.020,21.484,41.992,-13.184
1584599728.056,-9.766,15.137,21.484,-34.668,29.297
1584599728.060,20.508,24.902,22.461,5.371,61.523
1584599728.063,48.340,31.738,21.484,93.262,45.410
1584599728.067,21.484,26.367,18.066,68.359,9.277
1584599728.071,-12.695,18.555,16.602,-24.902,40.527
1584599728.075,3.418,19.043,19.043,-19.043,79.590
1584599728.079,42.969,24.902,20.996,71.777,47.363
1584599728.083,35.645,23.438,20.020,85.938,34.668
1584599728.087,-0.977,20.020,20.508,-5.371,44.922
1584599728.091,-2.930,20.020,20.996,-41.016,24.902
1584599728.095,36.133,25.391,23.926,48.828,3.418
1584599728.099,52.734,28.809,23.438,98.145,37.109
1584599728.102,18.555,25.879,20.508,15.137,19.043
1584599728.106,-5.371,24.414,21.484,-52.246,-45.898
1584599728.110,19.531,24.902,23.926,17.578,-6.836
1584599728.114,37.109,20.996,22.949,92.773,47.363
1584599728.118,10.254,17.578,19.043,46.875,88.379
1584599728.122,-15.625,16.602,20.020,-41.016,53.711
1584599728.126,10.742,20.996,22.949,-11.230,21.973
1584599728.130,44.434,28.809,23.438,79.590,48.340
1584599728.134,28.320,28.320,22.949,58.105,34.668
1584599728.138,-9.766,22.461,17.578,-40.039,16.113
1584599728.142,-0.977,22.461,14.648,-45.898,32.227
1584599728.145,38.574,27.344,18.555,51.758,30.762
1584599728.149,40.039,28.320,22.461,76.172,17.090
1584599728.153,3.906,25.879,26.855,-14.160,42.969
1584599728.157,-9.766,24.414,24.902,-53.711,49.316
1584599728.161,24.414,25.879,20.996,31.738,12.207
1584599728.165,39.551,28.809,21.973,85.938,9.766
1584599728.169,6.348,28.809,22.949,13.672,38.574
1584599728.173,-17.578,26.367,20.996,-62.500,83.984
1584599728.177,14.160,29.785,21.484,-2.930,77.148
1584599728.181,37.598,32.227,23.438,82.031,24.902
1584599728.185,15.625,30.273,23.438,43.945,0.977
1584599728.188,-6.348,27.344,20.508,-41.992,-30.762
1584599728.192,15.137,30.762,18.066,-21.484,-51.758
1584599728.196,46.875,34.180,21.973,79.102,-7.324
1584599728.200,32.715,31.738,24.902,78.125,35.645
1584599728.204,-3.418,27.344,21.973,-19.531,1.465
1584599728.208,-0.488,26.855,21.973,-39.551,29.297
1584599728.212,34.668,29.297,24.414,52.246,72.754
1584599728.216,40.527,28.809,21.484,90.820,41.016
1584599728.220,5.859,22.461,21.484,8.789,-11.230
1584599728.224,-2.441,20.996,22.461,-41.992,-34.668
1584599728.227,36.621,32.227,19.531,32.227,15.137
1584599728.231,50.293,34.180,19.531,94.727,25.391
1584599728.235,20.020,26.367,20.508,36.621,11.719
1584599728.239,-5.859,23.926,21.973,-38.574,23.438
1584599728.243,20.020,29.297,23.926,8.301,50.781
1584599728.247,46.875,33.691,27.344,101.074,51.270
1584599728.251,25.879,29.785,26.367,71.777,34.668
1584599728.255,-11.230,25.391,21.973,-29.785,25.879
1584599728.259,0.977,30.273,22.461,-14.160,11.230
1584599728.263,40.039,32.227,27.832,86.426,10.742
1584599728.267,31.250,27.344,26.855,84.961,33.203
1584599728.270,-5.371,21.973,21.484,-12.207,24.902
1584599728.274,-5.859,24.414,20.020,-34.668,12.695
1584599728.278,33.691,30.273,26.367,56.641,5.859
1584599728.282,39.062,23.438,26.367,95.703,20.508
1584599728.286,0.977,17.578,17.578,12.695,34.180
1584599728.290,-11.719,19.043,16.113,-47.852,-15.625
1584599728.294,22.461,27.344,20.508,25.391,-31.738
1584599728.298,46.387,27.832,20.508,89.844,-7.324
1584599728.302,23.926,22.949,20.508,28.809,14.160
1584599728.306,-9.766,23.438,20.020,-46.875,38.086
1584599728.310,8.789,23.438,18.555,-8.789,4.883
1584599728.313,42.480,23.438,20.020,79.102,9.766
1584599728.317,25.879,24.902,18.066,60.059,55.176
1584599728.321,-11.230,20.020,16.602,-29.297,34.668
1584599728.325,-1.465,19.043,19.043,-27.344,42.480
1584599728.329,38.086,22.461,22.949,65.918,49.316
1584599728.333,37.109,21.484,21.973,84.473,12.695
1584599728.337,-2.441,18.555,20.020,-2.441,36.621
1584599728.341,-8.301,17.090,16.602,-39.551,44.434
1584599728.345,24.902,23.438,16.602,39.062,57.617
1584599728.349,40.039,22.949,20.996,93.750,71.777
1584599728.352,10.742,16.113,15.625,24.902,65.918
1584599728.356,-20.020,20.508,11.719,-54.199,16.602
1584599728.360,5.371,29.297,14.648,-6.348,-59.570
1584599728.364,32.227,29.785,18.066,76.172,12.207
1584599728.368,10.254,22.461,20.020,41.016,52.734
1584599728.372,-18.555,18.066,19.531,-43.457,8.301
1584599728.376,1.465,22.949,20.020,-14.648,-6.836
1584599728.380,34.180,23.438,20.996,79.102,17.578
1584599728.384,29.297,22.461,21.973,74.219,30.273
1584599728.388,-4.395,20.020,20.508,-23.438,44.922
1584599728.392,0.000,18.066,19.531,-39.062,57.129
1584599728.395,42.969,23.438,22.461,58.594,66.406
1584599728.399,42.969,19.531,21.484,87.402,40.527
1584599728.403,2.930,18.066,19.531,-0.488,-11.230
1584599728.407,-4.883,24.902,22.461,-39.062,36.621
1584599728.411,33.203,23.926,22.461,41.504,25.391
1584599728.415,46.387,22.949,17.578,96.191,35.645
1584599728.419,17.090,21.484,17.090,34.180,92.773
1584599728.423,-5.371,18.555,19.043,-36.621,88.379
1584599728.427,22.461,19.531,20.996,15.625,36.133
1584599728.431,50.293,19.043,22.461,97.168,-18.066
1584599728.435,30.273,18.555,22.949,59.082,15.625
1584599728.438,1.465,20.508,21.973,-24.414,34.668
1584599728.442,19.531,22.461,20.020,-1.953,41.016
1584599728.446,49.316,26.855,20.996,90.332,41.016
1584599728.450,36.133,24.414,20.020,91.797,57.129
1584599728.454,3.418,18.066,19.531,-1.465,39.551
1584599728.458,5.371,20.020,21.484,-24.902,-42.480
1584599728.462,40.527,27.344,25.391,63.965,-5.371
1584599728.466,45.410,29.297,27.832,97.656,2.441
1584599728.470,6.348,23.926,25.879,16.113,-1.465
1584599728.474,-5.371,20.996,24.902,-33.691,-10.254
1584599728.477,30.762,26.855,23.438,31.738,10.254
1584599728.481,42.969,25.391,20.996,90.820,29.297
1584599728.485,11.230,18.555,15.625,34.180,-24.414
1584599728.489,-12.695,20.020,13.672,-45.410,-1.465
1584599728.493,12.695,22.949,16.113,-1.953,5.371
1584599728.497,45.898,26.855,19.043,88.867,20.020
1584599728.501,28.320,26.855,19.043,63.477,78.125
1584599728.505,-8.301,22.949,17.578,-28.809,51.758
1584599728.509,7.812,23.926,19.531,-17.090,45.410
1584599728.513,42.480,26.367,25.391,77.637,10.742
1584599728.517,32.715,27.832,27.344,84.961,10.742
1584599728.520,-6.836,22.461,20.020,-6.348,74.219
1584599728.524,-4.883,22.461,20.508,-37.598,102.051
1584599728.528,36.621,28.320,23.926,45.410,16.113
1584599728.532,41.504,25.879,21.484,87.402,-29.785
1584599728.536,7.324,19.531,20.508,15.625,25.879
1584599728.540,-10.254,19.043,22.949,-40.039,23.926
1584599728.544,22.461,24.414,23.926,25.391,10.742
1584599728.548,50.781,24.902,22.949,102.051,6.348
1584599728.552,25.391,18.555,21.484,57.129,55.664
1584599728.556,-7.812,20.508,19.531,-24.902,53.711
1584599728.560,9.766,31.738,21.484,-3.418,-5.371
1584599728.563,38.086,27.832,22.461,81.055,42.480
1584599728.567,21.484,17.090,17.090,61.035,76.660
1584599728.571,-13.184,17.090,14.160,-36.621,22.461
1584599728.575,-2.441,20.508,17.578,-41.504,-18.555
1584599728.579,41.016,21.973,20.020,56.152,11.719
1584599728.583,42.969,20.996,19.531,74.707,23.926
1584599728.587,2.441,19.043,19.531,-10.742,7.324
1584599728.591,-2.930,18.555,21.973,-38.574,29.297
1584599728.595,37.598,22.461,24.902,42.480,29.297
1584599728.599,51.758,23.438,26.367,93.262,37.598
1584599728.602,19.531,17.090,26.855,24.414,43.457
1584599728.606,1.953,16.113,23.926,-39.551,32.227
1584599728.610,33.691,19.043,22.949,17.578,64.453
1584599728.614,54.199,21.484,20.508,90.332,30.762
1584599728.618,28.809,23.926,18.066,45.898,20.508
1584599728.622,-3.418,20.020,20.508,-38.574,10.742
1584599728.626,8.301,16.113,21.484,-14.648,43.457
1584599728.630,42.969,19.531,22.461,75.684,102.539
1584599728.634,32.227,21.973,21.484,71.777,12.695
1584599728.638,-3.906,19.043,15.137,-19.043,-16.602
1584599728.642,2.441,19.043,14.160,-34.180,46.387
1584599728.645,36.621,20.508,17.090,57.129,24.902
1584599728.649,38.574,22.949,16.113,86.914,-13.184
1584599728.653,6.836,22.949,15.625,8.301,-16.602
1584599728.657,1.953,24.414,17.578,-35.645,18.066
1584599728.661,30.762,30.273,20.020,37.598,37.109
1584599728.665,39.062,31.738,17.090,95.703,17.090
1584599728.669,8.789,26.855,11.230,29.785,2.441
1584599728.673,-10.254,21.973,8.301,-46.875,15.625
1584599728.677,22.461,27.344,15.625,3.418,24.902
1584599728.681,50.293,29.297,23.438,87.891,32.715
1584599728.685,25.879,23.926,21.484,57.617,28.320
1584599728.688,-6.348,23.926,20.020,-24.414,37.109
1584599728.692,10.742,26.367,22.461,-13.184,34.668
1584599728.696,46.387,29.785,24.902,80.078,36.621
1584599728.700,43.945,33.691,21.973,86.914,68.848
1584599728.704,5.859,29.785,17.578,-9.766,10.742
1584599728.708,2.441,28.320,18.555,-32.715,16.113
1584599728.712,41.992,30.762,24.414,58.594,95.215
1584599728.716,44.922,26.367,24.902,93.750,86.914
1584599728.720,13.184,27.344,20.996,14.648,39.551
1584599728.724,3.418,34.668,22.949,-35.156,44.434
1584599728.727,35.156,35.156,25.879,37.109,92.285
1584599728.731,50.781,34.180,27.832,101.074,25.391
1584599728.735,20.020,31.250,26.855,45.410,34.668
1584599728.739,-3.418,28.320,24.414,-27.344,99.121
1584599728.743,21.484,29.297,25.391,12.695,45.898
1584599728.747,50.293,32.715,28.320,92.285,20.508
1584599728.751,31.250,30.762,24.902,66.895,-30.273
1584599728.755,-3.906,25.391,19.043,-23.926,-2.441
1584599728.759,9.277,28.809,20.996,-24.414,53.711
1584599728.763,51.270,38.086,26.367,68.848,45.898
1584599728.767,47.363,36.621,26.367,83.984,60.059
1584599728.770,9.277,25.879,24.902,0.488,38.086
1584599728.774,5.859,23.438,24.414,-30.273,12.695
1584599728.778,41.992,26.855,27.832,52.734,59.082
1584599728.782,48.340,26.367,28.809,100.586,39.062
1584599728.786,11.719,23.926,24.414,28.809,-22.461
1584599728.790,0.488,21.973,23.438,-30.273,13.184
1584599728.794,34.180,26.855,26.367,30.273,47.363
1584599728.798,52.246,30.273,24.414,101.074,53.711
1584599728.802,27.344,26.855,22.949,57.129,46.387
1584599728.806,-2.441,22.461,24.902,-24.414,35.156
1584599728.810,20.508,24.414,29.785,-0.488,47.363
1584599728.813,51.270,30.273,34.180,89.355,34.668
1584599728.817,36.133,30.273,29.785,83.008,29.785
1584599728.821,3.906,25.391,25.391,-8.789,21.484
1584599728.825,9.766,26.367,26.367,-18.555,2.441
1584599728.829,43.457,30.762,28.320,67.871,4.395
1584599728.833,42.480,28.809,27.832,89.844,29.785
1584599728.837,11.230,27.344,26.367,5.859,43.457
1584599728.841,5.371,27.344,26.367,-37.109,41.016
1584599728.845,38.574,30.273,27.832,37.109,14.648
1584599728.849,51.758,29.785,27.832,92.773,-23.438
1584599728.852,19.531,22.949,27.832,24.902,-19.531
1584599728.856,1.953,23.438,27.344,-45.410,53.223
1584599728.860,31.738,30.273,27.832,18.066,81.543
1584599728.864,50.293,29.785,32.227,98.633,69.824
1584599728.868,23.926,23.926,30.273,56.641,29.785
1584599728.872,-5.859,21.973,24.902,-28.320,17.578
1584599728.876,19.043,27.344,26.855,-8.789,31.250
1584599728.880,48.828,27.344,28.809,82.031,83.496
1584599728.884,28.320,22.949,25.879,79.102,63.477
1584599728.888,-9.277,22.949,19.043,-13.184,7.324
1584599728.892,-6.836,22.461,17.578,-29.785,11.230
1584599728.895,31.738,20.508,20.508,53.711,53.711
1584599728.899,38.574,24.414,21.973,80.078,39.551
1584599728.903,2.441,26.855,20.508,7.812,37.598
1584599728.907,-4.395,24.902,21.484,-35.156,39.062
1584599728.911,28.809,26.367,25.879,35.645,26.855
1584599728.915,38.574,28.320,26.855,94.238,66.895
1584599728.919,13.184,26.855,24.414,30.273,-8.789
1584599728.923,-11.230,23.926,22.461,-40.527,-39.062
1584599728.927,13.672,25.391,23.438,4.883,20.020
1584599728.931,45.898,28.320,26.855,83.984,8.301
1584599728.935,28.809,27.344,27.344,58.105,-13.184
1584599728.938,-8.301,23.926,25.879,-26.855,1.465
1584599728.942,2.930,26.367,26.855,-19.043,4.883
1584599728.946,44.922,31.250,27.832,71.777,-11.230
1584599728.950,44.922,32.715,28.809,85.938,-32.227
1584599728.954,7.812,28.320,28.809,-0.977,-26.367
1584599728.958,7.324,29.297,28.320,-31.250,55.664
1584599728.962,45.898,32.715,28.809,52.734,39.062
1584599728.966,48.340,32.227,27.344,96.680,16.602
1584599728.970,14.160,30.762,25.879,21.484,15.137
1584599728.974,2.930,28.809,27.832,-38.086,20.020
1584599728.977,35.156,30.762,31.250,29.785,41.016
1584599728.981,55.176,35.645,28.320,101.562,63.477
1584599728.985,26.855,31.738,24.902,50.293,81.055
1584599728.989,0.977,25.391,24.414,-33.203,17.578
1584599728.993,26.855,30.273,25.879,-2.930,-29.297
