timestamps,TP9,AF7,AF8,TP10,Right AUX
1584599931.657,51.270,30.273,30.273,108.398,7.324
1584599931.661,35.645,27.344,29.297,62.012,39.062
1584599931.665,8.301,26.367,24.902,-28.320,36.621
1584599931.669,23.438,28.809,27.344,-5.859,-11.719
1584599931.673,53.711,33.203,30.762,92.285,-6.348
1584599931.677,41.504,29.785,28.809,92.285,-44.434
1584599931.681,5.859,27.832,21.973,-10.254,-12.207
1584599931.685,5.859,31.738,21.973,-31.738,22.949
1584599931.688,38.086,32.227,26.855,61.523,9.277
1584599931.692,39.062,33.203,27.344,93.262,-18.066
1584599931.696,9.766,32.715,24.902,12.695,4.395
1584599931.700,-3.906,30.273,20.996,-40.527,55.176
1584599931.704,22.461,30.273,23.438,33.203,66.895
1584599931.708,39.551,30.273,30.273,104.492,54.688
1584599931.712,15.137,26.367,31.250,44.922,55.176
1584599931.716,-1.465,23.438,27.832,-39.062,46.387
1584599931.720,26.367,28.320,25.879,3.418,17.578
1584599931.724,49.316,29.785,24.414,93.262,51.270
1584599931.727,31.738,26.367,22.461,65.430,51.758
1584599931.731,1.953,24.414,22.949,-27.832,41.016
1584599931.735,11.719,25.391,27.344,-25.879,37.598
1584599931.739,42.480,31.250,31.250,71.289,28.809
1584599931.743,33.203,33.691,32.227,86.914,47.363
1584599931.747,0.488,27.832,28.809,-5.859,43.945
1584599931.751,0.977,26.855,26.855,-39.062,18.555
1584599931.755,31.738,30.273,29.297,45.410,59.082
1584599931.759,40.039,31.250,28.809,96.191,59.082
1584599931.763,11.230,27.344,24.902,20.020,-16.113
1584599931.767,-3.906,24.902,23.438,-41.992,-39.551
1584599931.770,26.855,28.809,25.391,28.809,31.738
1584599931.774,43.457,28.320,26.367,103.027,73.242
1584599931.778,15.137,21.973,25.391,43.945,22.461
1584599931.782,-4.395,17.578,24.902,-41.992,-4.395
1584599931.786,14.648,21.484,27.344,-1.953,28.320
1584599931.790,41.016,26.367,28.320,91.797,33.203
1584599931.794,32.227,25.391,26.855,76.172,17.578
1584599931.798,2.930,20.020,23.438,-25.879,-35.645
1584599931.802,7.812,21.484,22.461,-34.180,-51.758
1584599931.806,39.551,27.344,25.391,69.336,43.945
1584599931.810,35.645,26.367,28.809,95.703,56.152
1584599931.813,4.883,22.461,28.320,4.883,58.105
1584599931.817,5.371,24.414,26.855,-35.156,61.523
1584599931.821,36.621,27.832,30.273,51.270,21.484
1584599931.825,42.480,24.414,30.273,99.609,40.039
1584599931.829,8.301,19.043,27.832,21.484,20.996
1584599931.833,-3.906,18.066,27.832,-38.086,19.531
1584599931.837,23.438,23.926,28.320,20.020,40.527
1584599931.841,41.992,29.297,27.832,96.680,28.320
1584599931.845,31.250,24.902,30.273,65.918,31.738
1584599931.849,10.254,20.996,33.203,-22.461,12.207
1584599931.852,17.090,26.855,31.738,-12.207,3.906
1584599931.856,44.922,32.715,29.297,82.031,-3.906
1584599931.860,29.297,28.320,26.367,76.660,30.273
1584599931.864,-8.301,20.996,23.926,-20.996,53.223
1584599931.868,6.348,21.484,25.391,-34.668,-28.809
1584599931.872,45.898,28.809,29.297,65.918,-21.973
1584599931.876,46.875,29.785,27.344,99.609,18.066
1584599931.880,13.672,21.484,26.367,12.695,-1.953
1584599931.884,4.883,19.043,28.809,-37.109,13.672
1584599931.888,33.203,24.414,28.320,40.039,20.508
1584599931.892,46.875,27.344,32.227,104.004,22.949
1584599931.895,18.066,23.438,31.250,37.598,38.574
1584599931.899,0.977,20.020,27.344,-40.527,55.176
1584599931.903,31.738,24.902,32.227,12.695,18.555
1584599931.907,52.734,25.879,34.180,98.633,15.625
1584599931.911,30.762,20.020,29.785,55.176,11.719
1584599931.915,2.930,18.066,25.879,-41.016,20.020
1584599931.919,17.578,20.996,23.438,-23.926,55.176
1584599931.923,43.945,21.973,25.879,82.031,41.504
1584599931.927,34.180,18.066,25.879,76.660,20.020
1584599931.931,7.324,18.066,21.484,-23.438,-22.949
1584599931.935,7.812,23.438,19.531,-44.434,-33.203
1584599931.938,36.621,26.855,23.438,50.781,23.926
1584599931.942,36.133,23.438,26.367,92.285,0.000
1584599931.946,0.488,18.555,25.879,0.977,-8.789
1584599931.950,-8.789,19.043,22.949,-54.199,20.508
1584599931.954,23.926,24.902,25.391,23.926,-30.762
1584599931.958,36.621,26.855,31.250,94.727,-2.930
1584599931.962,6.348,21.484,30.273,37.109,27.832
1584599931.966,-12.695,21.484,30.762,-41.504,2.930
1584599931.970,10.742,26.367,31.250,0.000,38.574
1584599931.974,35.645,30.762,34.180,88.379,32.227
1584599931.977,18.555,26.855,31.738,60.547,17.578
1584599931.981,-10.254,21.973,24.902,-32.227,59.570
1584599931.985,5.859,24.414,27.344,-25.879,32.715
1584599931.989,33.691,27.832,33.691,72.266,20.020
1584599931.993,27.344,26.367,30.762,82.520,6.348
1584599931.997,-3.418,24.414,28.809,-11.230,3.418
1584599932.001,-0.977,29.297,32.715,-39.062,27.832
1584599932.005,34.668,34.668,31.250,47.852,34.668
1584599932.009,39.062,33.203,29.297,92.773,56.152
1584599932.013,3.906,28.320,26.855,15.625,76.660
1584599932.017,-11.230,26.367,26.855,-44.922,66.406
1584599932.020,23.926,27.344,28.320,13.672,30.762
1584599932.024,45.898,28.809,26.367,88.867,-2.930
1584599932.028,16.602,26.855,25.391,41.016,34.180
1584599932.032,-9.277,22.949,26.367,-42.969,46.387
1584599932.036,21.484,28.320,26.367,-7.324,18.555
1584599932.040,47.852,32.227,28.809,82.031,20.020
1584599932.044,29.785,28.809,29.297,67.871,60.547
1584599932.048,2.441,23.438,27.344,-29.297,31.738
1584599932.052,10.742,21.973,27.832,-36.621,17.090
1584599932.056,40.039,28.320,33.691,69.336,33.691
1584599932.060,41.992,29.297,35.645,93.750,65.918
1584599932.063,13.672,20.508,28.809,-0.977,87.891
1584599932.067,6.836,21.484,29.297,-42.969,47.363
1584599932.071,35.645,30.273,35.156,44.922,33.203
1584599932.075,42.480,31.738,33.203,101.562,26.367
1584599932.079,13.184,27.832,28.320,24.902,23.926
1584599932.083,0.977,28.809,28.320,-45.898,-8.301
1584599932.087,30.273,34.180,32.227,16.113,28.809
1584599932.091,47.363,33.691,32.227,98.633,62.500
1584599932.095,27.832,27.832,29.785,56.641,0.977
1584599932.099,3.418,23.926,27.832,-29.785,31.250
1584599932.102,14.160,29.785,26.367,-10.742,37.598
1584599932.106,36.621,33.203,30.273,80.566,13.184
1584599932.110,26.367,31.250,28.809,71.289,49.316
1584599932.114,-7.324,31.738,26.855,-27.832,28.809
1584599932.118,-6.836,31.250,28.809,-39.551,65.918
1584599932.122,31.250,32.715,28.809,62.988,85.938
1584599932.126,35.156,33.691,25.391,91.797,51.270
1584599932.130,4.395,32.715,20.996,-2.930,57.617
1584599932.134,-2.930,29.297,19.531,-43.457,11.230
1584599932.138,24.902,30.762,21.973,32.715,13.184
1584599932.142,40.527,31.738,26.367,89.355,44.434
1584599932.145,13.184,26.855,25.391,20.508,34.668
1584599932.149,-8.789,28.809,20.508,-55.176,36.133
1584599932.153,18.555,31.250,25.391,4.395,16.602
1584599932.157,41.504,31.738,28.809,87.402,4.395
1584599932.161,22.949,32.715,24.414,51.758,-13.184
1584599932.165,-5.371,28.320,23.926,-32.715,6.348
1584599932.169,16.602,26.855,29.297,-17.090,48.828
1584599932.173,47.363,31.250,30.273,80.566,33.203
1584599932.177,34.180,29.785,28.809,85.938,43.457
1584599932.181,3.418,22.461,27.344,-14.648,21.484
1584599932.185,8.301,22.949,25.879,-38.574,-26.855
1584599932.188,40.527,29.297,29.297,55.664,34.180
1584599932.192,42.480,25.391,30.762,93.262,64.941
1584599932.196,16.602,18.066,29.297,14.160,22.949
1584599932.200,9.277,17.578,28.320,-45.410,19.043
1584599932.204,31.738,22.949,29.297,22.949,14.160
1584599932.208,43.945,27.832,29.785,101.562,26.855
1584599932.212,19.043,24.902,27.344,44.922,27.344
1584599932.216,-1.465,21.484,26.367,-41.016,8.789
1584599932.220,21.973,25.879,26.855,-0.977,30.273
1584599932.224,43.457,27.832,30.762,94.238,18.066
1584599932.227,22.461,24.414,27.832,63.477,40.527
1584599932.231,-6.836,20.996,24.902,-33.203,110.840
1584599932.235,5.371,23.438,27.344,-25.391,69.336
1584599932.239,32.227,26.855,27.832,71.777,52.246
1584599932.243,31.250,25.879,27.832,82.520,60.547
1584599932.247,7.812,22.949,28.809,-14.648,11.230
1584599932.251,9.766,25.879,30.273,-37.109,-45.410
1584599932.255,42.969,29.297,35.156,57.129,-25.391
1584599932.259,43.945,26.855,34.180,98.633,38.574
1584599932.263,15.137,25.879,28.809,21.484,53.711
1584599932.267,5.859,27.832,30.273,-37.109,-4.395
1584599932.270,37.598,28.809,33.203,28.809,-27.832
1584599932.274,52.246,28.809,32.227,101.074,42.969
1584599932.278,22.949,23.926,29.297,49.805,51.758
1584599932.282,-0.977,20.508,26.367,-30.273,-4.395
1584599932.286,20.508,23.926,29.785,6.348,-31.738
1584599932.290,45.898,23.438,32.227,88.379,14.160
1584599932.294,29.297,18.066,33.203,80.566,27.344
1584599932.298,0.000,17.578,32.715,-10.254,0.488
1584599932.302,5.859,20.996,31.250,-27.344,57.129
1584599932.306,37.109,21.973,32.715,73.242,39.062
1584599932.310,37.109,21.973,30.762,97.168,-13.184
1584599932.313,5.371,21.484,28.320,10.254,65.430
1584599932.317,5.371,21.973,28.320,-30.273,82.031
1584599932.321,39.062,28.809,28.809,57.129,37.598
1584599932.325,50.293,31.250,30.762,114.746,51.270
1584599932.329,22.949,22.461,29.785,39.062,31.250
1584599932.333,5.371,15.625,27.344,-36.621,26.367
1584599932.337,27.832,19.531,28.320,19.043,62.988
1584599932.341,44.922,24.414,27.832,104.004,72.266
1584599932.345,22.461,20.508,26.855,59.570,45.898
1584599932.349,-1.465,18.066,28.809,-33.203,53.711
1584599932.352,20.508,23.926,30.762,-13.184,60.059
1584599932.356,49.316,27.832,28.809,83.008,58.105
1584599932.360,32.715,23.926,27.832,80.078,52.246
1584599932.364,0.000,20.020,24.902,-19.043,37.109
1584599932.368,8.789,22.461,23.926,-36.133,44.922
1584599932.372,42.969,28.320,25.391,63.477,41.992
1584599932.376,46.875,29.785,26.855,92.285,-9.766
1584599932.380,15.625,25.879,25.391,1.953,3.906
1584599932.384,5.859,25.391,23.926,-48.828,22.461
1584599932.388,35.645,28.320,27.832,35.645,26.855
1584599932.392,44.434,26.367,27.344,99.121,62.012
1584599932.395,14.160,20.020,23.438,36.133,7.324
1584599932.399,2.930,20.996,21.484,-41.992,-25.391
1584599932.403,33.203,25.879,20.996,0.000,18.555
1584599932.407,47.852,27.344,23.926,97.656,-24.414
1584599932.411,24.414,24.902,25.879,62.012,-2.930
1584599932.415,-1.465,21.484,26.367,-32.715,38.086
1584599932.419,13.184,21.973,26.367,-14.648,15.625
1584599932.423,41.992,25.391,24.902,78.613,13.672
1584599932.427,29.297,21.973,20.996,76.660,-4.883
1584599932.431,0.000,16.602,20.996,-17.090,-0.488
1584599932.435,3.418,16.602,21.973,-40.039,8.789
1584599932.438,31.250,20.508,22.949,52.734,22.461
1584599932.442,35.645,23.438,27.832,89.355,46.387
1584599932.446,7.812,21.484,26.855,13.672,37.109
1584599932.450,1.953,22.461,25.879,-33.203,25.391
1584599932.454,28.320,25.879,26.855,37.598,23.438
1584599932.458,35.156,26.367,27.832,104.980,25.391
1584599932.462,6.348,25.879,25.391,45.898,18.066
1584599932.466,-11.230,24.414,23.926,-33.691,46.387
1584599932.470,19.531,25.391,28.320,9.766,37.598
1584599932.474,43.945,29.785,29.297,97.168,-47.363
1584599932.477,28.809,30.762,28.320,70.801,-24.902
1584599932.481,2.441,29.785,24.902,-23.438,52.734
1584599932.485,15.137,31.250,26.855,-23.438,35.645
1584599932.489,43.945,34.180,30.762,73.730,32.227
1584599932.493,35.645,32.227,30.273,90.332,48.828
1584599932.497,3.906,26.855,26.367,-5.859,21.484
1584599932.501,0.488,27.832,26.367,-39.551,14.648
1584599932.505,33.203,33.691,28.320,52.246,21.973
1584599932.509,39.062,32.715,29.785,99.121,-20.996
1584599932.513,7.812,27.832,31.738,19.531,-12.695
1584599932.517,-2.441,30.762,29.785,-38.086,4.883
1584599932.520,28.320,36.133,32.227,20.508,44.922
1584599932.524,42.969,35.156,35.156,96.680,79.102
1584599932.528,16.113,32.715,35.156,47.363,47.363
1584599932.532,-6.348,28.809,33.203,-54.688,34.180
1584599932.536,19.531,30.762,31.738,-21.484,26.855
1584599932.540,46.387,35.156,32.715,79.102,-9.766
1584599932.544,22.949,31.250,33.203,58.594,10.254
1584599932.548,-9.277,27.832,30.273,-35.645,41.504
1584599932.552,4.395,30.273,27.832,-37.109,12.207
1584599932.556,37.109,34.668,30.762,61.523,4.395
1584599932.560,36.133,34.668,30.762,83.008,23.438
1584599932.563,2.930,28.809,25.879,-9.277,76.172
1584599932.567,0.000,26.855,28.809,-47.852,88.867
1584599932.571,29.297,31.738,33.691,37.109,41.016
1584599932.575,36.133,34.180,29.785,91.309,6.348
1584599932.579,14.648,34.668,27.344,15.625,49.316
1584599932.583,0.977,34.668,26.367,-53.223,58.105
1584599932.587,20.996,36.621,25.391,9.766,12.207
1584599932.591,44.434,41.016,28.809,97.656,13.184
1584599932.595,21.484,37.598,30.762,60.059,-18.066
1584599932.599,-5.859,32.227,25.391,-32.715,12.695
1584599932.602,18.555,35.645,28.320,-9.277,29.297
1584599932.606,43.457,41.016,35.645,87.891,20.996
1584599932.610,32.227,37.109,31.738,77.148,-10.742
1584599932.614,7.812,32.715,27.344,-19.043,1.953
1584599932.618,16.113,33.203,27.344,-31.250,53.711
1584599932.622,42.480,35.645,29.785,65.430,42.480
1584599932.626,40.527,37.598,28.809,98.145,59.570
1584599932.630,11.230,32.227,22.461,1.465,52.734
1584599932.634,5.859,30.762,22.461,-48.828,39.551
1584599932.638,35.645,34.668,23.926,37.109,67.383
1584599932.642,47.852,34.180,22.949,99.609,62.988
1584599932.645,20.020,29.785,18.555,28.809,52.734
1584599932.649,3.418,29.297,15.625,-54.199,10.742
1584599932.653,30.273,34.180,23.438,-1.465,2.930
1584599932.657,53.223,37.598,26.367,94.238,12.695
1584599932.661,30.273,34.668,26.367,58.594,-11.230
1584599932.665,-1.953,30.762,24.902,-42.480,-7.324
1584599932.669,12.695,30.273,22.949,-34.180,14.648
1584599932.673,37.598,35.156,26.367,70.312,45.410
1584599932.677,24.902,35.156,26.367,76.660,21.484
1584599932.681,-5.371,30.273,23.926,-28.809,25.879
1584599932.685,4.395,33.203,25.391,-39.551,18.066
1584599932.688,40.039,36.621,26.855,62.012,0.488
1584599932.692,40.039,31.738,25.879,91.797,52.246
1584599932.696,5.859,25.391,25.391,5.371,99.609
1584599932.700,-1.953,25.879,24.902,-43.945,90.820
1584599932.704,27.344,28.809,28.320,30.762,48.828
1584599932.708,41.504,26.855,29.785,97.168,37.598
1584599932.712,16.602,24.902,30.762,36.621,28.320
1584599932.716,-7.812,25.391,27.344,-39.551,34.180
1584599932.720,19.043,26.367,29.297,7.324,-24.414
1584599932.724,46.387,28.809,29.785,94.727,-37.109
1584599932.727,30.273,27.832,26.855,68.359,-43.457
1584599932.731,1.953,23.926,28.809,-20.508,-31.738
1584599932.735,11.719,25.391,32.715,-10.254,47.852
1584599932.739,49.805,30.273,35.156,95.703,46.387
1584599932.743,54.199,30.762,34.668,111.816,57.129
1584599932.747,9.277,26.367,27.832,0.488,27.832
1584599932.751,-10.742,28.809,27.344,-42.480,-13.184
1584599932.755,23.438,30.762,34.668,59.082,33.691
1584599932.759,36.133,27.832,32.227,110.352,58.594
1584599932.763,11.230,22.949,25.391,28.809,48.340
1584599932.767,1.953,18.066,28.320,-31.738,48.828
1584599932.770,28.320,18.555,32.227,31.250,52.246
1584599932.774,44.434,24.414,32.227,104.980,52.734
1584599932.778,18.066,22.461,30.762,53.223,27.832
1584599932.782,-4.395,18.555,27.344,-36.133,48.340
1584599932.786,20.508,22.461,27.344,-0.488,41.992
1584599932.790,46.387,25.391,29.297,91.797,4.395
1584599932.794,32.715,23.438,27.832,76.660,59.082
1584599932.798,3.418,19.043,27.344,-18.555,25.391
1584599932.802,13.672,21.484,28.320,-33.691,-14.160
1584599932.806,46.875,29.297,31.738,85.938,11.719
1584599932.810,41.016,28.320,32.227,107.910,-3.418
1584599932.813,4.395,16.602,27.344,-14.160,20.996
1584599932.817,4.883,16.602,27.344,-50.293,36.133
1584599932.821,38.086,23.926,32.715,46.387,29.297
1584599932.825,43.457,23.926,33.203,103.027,57.129
1584599932.829,15.625,22.461,26.367,23.438,39.551
1584599932.833,1.465,20.508,25.879,-47.852,-10.254
1584599932.837,30.273,25.879,28.809,16.602,28.809
1584599932.841,49.316,29.297,29.785,98.633,19.531
1584599932.845,25.391,24.414,31.738,54.199,29.297
1584599932.849,4.395,20.508,33.691,-32.715,24.902
1584599932.852,27.344,24.902,35.645,-3.418,-12.207
1584599932.856,50.293,24.902,32.227,90.332,-3.906
1584599932.860,30.273,15.625,28.809,82.520,1.953
1584599932.864,-0.488,16.113,30.273,-16.602,-0.488
1584599932.868,11.230,22.461,31.738,-24.902,25.391
1584599932.872,41.504,23.926,31.250,77.637,23.438
1584599932.876,40.039,23.438,32.227,100.586,27.344
1584599932.880,7.812,21.484,29.785,13.672,31.738
1584599932.884,2.441,21.973,28.320,-29.297,16.113
1584599932.888,35.156,26.367,31.250,37.109,11.719
1584599932.892,43.457,28.320,30.273,99.121,25.391
1584599932.895,25.391,25.391,27.832,46.875,73.730
1584599932.899,10.254,23.926,31.250,-26.855,42.480
1584599932.903,15.137,23.926,34.180,5.859,21.484
1584599932.907,33.691,24.414,35.156,89.844,71.289
1584599932.911,24.414,24.414,34.668,65.430,48.340
1584599932.915,-5.371,22.461,31.250,-33.203,4.883
1584599932.919,1.465,25.879,33.691,-18.555,24.414
1584599932.923,32.227,29.297,37.109,86.426,47.363
1584599932.927,29.785,25.879,37.109,87.402,35.645
1584599932.931,3.906,22.461,33.203,-10.742,13.672
1584599932.935,9.766,22.461,32.227,-28.320,37.598
1584599932.938,45.410,25.391,34.668,66.406,38.086
1584599932.942,45.898,28.809,33.203,96.191,46.875
1584599932.946,9.277,28.809,28.320,14.648,63.477
1584599932.950,2.930,26.855,27.344,-43.457,40.527
1584599932.954,33.691,29.297,32.227,21.484,57.617
1584599932.958,46.875,35.645,31.250,100.586,-4.883
1584599932.962,20.996,33.691,28.320,38.086,-24.414
1584599932.966,-3.418,29.297,26.855,-47.363,37.109
1584599932.970,18.555,32.227,27.344,6.836,30.762
1584599932.974,43.457,35.156,27.832,96.191,41.016
1584599932.977,25.391,31.738,27.344,61.035,13.672
1584599932.981,-5.371,26.855,26.367,-31.250,42.480
1584599932.985,6.836,25.391,28.320,-24.414,92.773
1584599932.989,40.527,29.297,30.273,79.102,31.250
1584599932.993,30.762,31.250,27.832,84.961,8.789
1584599932.997,-4.883,28.320,27.832,-17.090,29.297
1584599933.001,3.906,32.227,29.297,-38.574,51.758
1584599933.005,37.598,36.621,30.273,58.105,25.391
1584599933.009,36.133,31.738,29.297,97.168,28.809
1584599933.013,2.930,23.438,24.902,14.160,35.156
1584599933.017,-5.859,23.926,25.391,-43.457,65.430
1584599933.020,25.391,28.809,26.855,27.832,42.480
1584599933.024,42.969,26.367,27.832,100.098,11.719
1584599933.028,16.602,21.484,27.344,49.805,11.719
1584599933.032,-5.371,21.973,26.855,-36.133,20.020
1584599933.036,20.508,27.344,31.250,-2.930,74.707
1584599933.040,49.316,29.785,33.691,91.309,16.113
1584599933.044,31.738,29.297,30.762,55.664,0.000
1584599933.048,0.977,27.344,29.297,-35.156,31.738
1584599933.052,9.766,28.320,29.297,-24.414,41.016
1584599933.056,41.504,34.668,28.809,73.730,64.941
1584599933.060,39.062,32.715,30.273,89.844,10.254
1584599933.063,2.930,25.391,29.297,-5.371,34.180
1584599933.067,-0.488,24.414,29.297,-44.922,54.199
1584599933.071,33.691,30.273,30.762,38.574,-0.488
1584599933.075,37.598,33.203,28.809,89.355,-36.621
1584599933.079,4.395,28.320,26.367,15.625,-2.441
1584599933.083,-5.371,25.391,25.391,-48.828,-16.602
1584599933.087,27.832,32.227,29.297,18.555,7.324
1584599933.091,44.922,34.180,28.320,96.680,36.621
1584599933.095,24.902,26.367,29.297,55.664,-13.184
1584599933.099,8.301,22.461,32.227,-26.367,18.066
1584599933.102,20.996,27.832,29.297,-6.836,26.367
1584599933.106,36.621,33.691,25.879,81.543,84.961
1584599933.110,25.391,35.156,25.879,75.684,79.590
1584599933.114,-6.348,29.297,23.438,-25.391,12.207
1584599933.118,-4.395,26.855,24.414,-42.480,19.531
1584599933.122,29.785,29.785,28.320,62.988,-8.789
1584599933.126,32.715,30.762,28.809,94.727,20.996
1584599933.130,3.906,30.762,26.855,3.418,49.805
1584599933.134,-2.441,28.320,22.949,-46.875,42.969
1584599933.138,25.879,30.762,22.949,36.621,44.434
1584599933.142,36.621,32.715,24.902,97.168,13.184
1584599933.145,12.207,28.320,24.902,20.020,27.832
1584599933.149,-3.906,27.344,24.902,-52.246,31.738
1584599933.153,20.508,30.273,27.832,12.695,-11.230
1584599933.157,45.898,33.691,28.809,99.609,20.508
1584599933.161,24.902,31.250,25.391,75.684,23.438
1584599933.165,-5.371,25.879,27.344,-21.484,16.602
1584599933.169,16.602,26.855,31.250,-20.508,53.223
1584599933.173,48.828,30.273,30.762,85.449,37.598
1584599933.177,38.574,27.832,29.785,79.102,11.230
1584599933.181,3.418,21.484,30.273,-13.672,10.254
1584599933.185,6.348,22.461,29.785,-27.344,18.555
1584599933.188,40.527,27.832,26.855,60.059,-4.395
1584599933.192,42.480,29.785,27.832,89.844,-12.695
1584599933.196,11.230,26.855,27.832,9.766,40.039
1584599933.200,0.488,25.879,22.949,-39.551,50.781
1584599933.204,31.250,34.668,25.879,30.762,23.926
1584599933.208,44.434,37.598,28.809,99.609,19.531
1584599933.212,15.137,29.785,25.879,50.293,10.254
1584599933.216,-4.883,24.902,22.949,-41.992,14.648
1584599933.220,21.484,28.320,23.438,-2.441,1.465
1584599933.224,49.316,31.738,26.855,99.121,70.312
1584599933.227,30.762,29.297,25.879,63.477,61.035
1584599933.231,0.977,26.367,24.414,-34.668,-11.230
1584599933.235,14.160,30.762,26.855,-23.438,47.363
1584599933.239,43.457,35.645,29.785,75.195,35.645
1584599933.243,32.227,31.250,32.227,87.402,0.977
1584599933.247,0.488,26.367,33.691,-6.836,34.180
1584599933.251,5.371,27.832,34.180,-34.180,42.969
1584599933.255,36.621,31.250,36.133,57.617,26.855
1584599933.259,39.062,26.367,35.156,110.352,27.344
1584599933.263,7.812,22.949,33.691,18.555,5.859
1584599933.267,2.441,25.879,34.668,-54.688,15.625
1584599933.270,41.992,30.273,33.203,21.973,5.371
1584599933.274,55.176,29.785,32.715,94.727,47.363
1584599933.278,21.484,20.508,33.203,38.086,84.961
1584599933.282,4.883,19.531,30.273,-44.434,26.367
1584599933.286,26.855,28.320,33.691,-2.441,8.789
1584599933.290,48.340,33.203,37.109,91.797,-3.906
1584599933.294,31.738,28.320,34.180,67.871,34.668
1584599933.298,1.465,21.973,35.156,-16.113,58.594
1584599933.302,20.996,27.832,37.598,-7.324,23.926
1584599933.306,48.340,34.180,34.668,76.660,43.457
1584599933.310,32.227,32.227,32.227,78.613,30.273
1584599933.313,-0.488,25.879,32.227,-16.113,-12.207
1584599933.317,-0.488,24.902,33.691,-45.898,5.371
1584599933.321,32.227,27.832,36.133,44.434,53.711
1584599933.325,35.645,26.855,36.133,92.285,80.078
1584599933.329,11.719,25.879,34.668,13.184,31.250
1584599933.333,1.953,24.414,32.715,-33.203,3.906
1584599933.337,27.344,28.809,32.715,28.809,39.062
1584599933.341,42.480,30.273,33.203,93.262,15.137
1584599933.345,18.555,27.344,27.344,44.434,-42.969
1584599933.349,-0.977,30.762,25.879,-36.133,7.324
1584599933.352,18.066,32.227,29.297,0.977,16.113
1584599933.356,46.875,32.715,31.250,81.055,7.324
1584599933.360,39.551,34.668,30.273,68.359,16.113
1584599933.364,4.883,31.250,25.391,-22.949,49.316
1584599933.368,10.742,27.344,25.879,-30.762,73.730
1584599933.372,41.504,29.297,25.391,58.594,-5.371
1584599933.376,35.156,29.785,22.461,82.520,-11.230
1584599933.380,6.348,27.344,21.484,-0.488,30.273
1584599933.384,6.348,29.297,20.020,-40.527,47.363
1584599933.388,37.598,34.180,22.461,36.133,37.109
1584599933.392,50.293,34.668,25.879,94.238,34.668
1584599933.395,20.508,32.227,22.949,23.438,45.410
1584599933.399,1.953,26.367,21.973,-49.805,56.152
1584599933.403,28.809,26.855,24.414,10.254,58.105
1584599933.407,47.852,31.738,24.902,95.215,38.086
1584599933.411,25.391,26.367,23.926,54.199,31.250
1584599933.415,-2.930,23.926,20.020,-45.898,24.414
1584599933.419,16.113,27.832,24.902,-22.949,-26.367
1584599933.423,46.875,29.297,31.250,87.402,12.695
1584599933.427,31.738,27.832,30.273,83.984,60.547
1584599933.431,-0.488,26.855,28.320,-16.113,22.461
1584599933.435,10.254,29.785,25.879,-36.133,-4.883
1584599933.438,42.480,34.668,25.879,59.082,-10.254
1584599933.442,38.574,32.715,29.785,94.238,2.930
1584599933.446,6.836,27.344,25.879,2.930,37.598
1584599933.450,0.000,28.809,20.508,-46.387,45.898
1584599933.454,34.668,34.668,24.902,42.480,32.227
1584599933.458,45.898,31.738,25.879,106.445,36.621
1584599933.462,13.184,29.785,23.926,28.809,37.109
1584599933.466,-6.348,31.250,24.414,-47.363,68.359
1584599933.470,17.578,34.180,25.879,4.395,40.039
1584599933.474,39.062,35.156,27.344,89.844,28.809
1584599933.477,23.926,32.715,27.344,60.547,-13.184
1584599933.481,-0.977,33.203,27.344,-31.250,-27.832
1584599933.485,11.230,32.715,27.344,-18.555,-19.531
1584599933.489,40.039,32.715,32.227,86.914,29.297
1584599933.493,35.156,30.762,27.832,83.008,75.195
1584599933.497,3.906,25.879,20.996,-23.926,13.184
1584599933.501,6.836,29.297,26.855,-41.016,4.883
1584599933.505,35.645,34.180,27.832,54.688,17.090
1584599933.509,32.715,32.715,25.391,92.773,22.461
1584599933.513,0.488,27.344,24.414,6.836,-50.293
1584599933.517,-10.254,26.367,24.902,-47.852,-36.133
1584599933.520,19.531,31.738,27.832,33.691,57.129
1584599933.524,34.180,32.715,27.832,100.098,20.996
1584599933.528,11.719,30.273,21.484,39.551,34.180
1584599933.532,-8.301,28.320,19.531,-47.363,100.586
1584599933.536,16.602,33.203,23.926,-8.789,53.223
1584599933.540,46.387,35.645,26.855,91.797,56.152
1584599933.544,23.926,30.762,23.438,69.824,39.062
1584599933.548,-11.230,25.879,20.996,-31.250,26.855
1584599933.552,3.418,25.879,21.973,-28.809,64.941
1584599933.556,36.621,32.227,24.414,76.660,59.082
1584599933.560,28.320,34.668,24.902,91.797,60.059
1584599933.563,-3.906,26.367,21.484,-9.766,43.457
1584599933.567,-1.953,24.902,20.020,-52.246,-2.441
1584599933.571,29.297,29.785,21.973,40.039,-32.227
1584599933.575,30.273,27.832,21.484,95.215,7.812
1584599933.579,-0.488,22.949,17.090,16.113,25.391
1584599933.583,-13.672,20.996,16.602,-42.480,0.977
1584599933.587,17.090,27.832,19.531,16.602,7.324
1584599933.591,41.992,31.250,21.484,86.914,58.594
1584599933.595,12.207,23.438,19.043,40.527,48.340
1584599933.599,-17.090,21.973,20.020,-45.898,34.180
1584599933.602,10.254,26.367,24.902,-11.230,17.578
1584599933.606,43.457,27.832,28.809,89.355,-31.250
1584599933.610,25.879,28.809,32.227,73.242,-16.113
1584599933.614,-9.277,26.855,28.809,-34.180,5.859
1584599933.618,4.395,27.344,26.367,-39.062,-11.719
1584599933.622,41.504,32.227,27.832,66.895,-54.199
1584599933.626,34.668,33.691,28.320,89.844,4.883
1584599933.630,2.930,28.809,28.320,-5.371,46.387
1584599933.634,3.906,28.320,28.809,-44.434,-9.277
1584599933.638,39.062,34.180,28.320,41.504,1.465
1584599933.642,48.340,36.621,28.320,98.145,34.180
1584599933.645,24.414,30.273,26.367,30.762,61.523
1584599933.649,10.254,28.809,25.879,-40.527,49.316
1584599933.653,19.531,27.344,27.344,6.836,-3.418
1584599933.657,32.227,23.926,30.762,86.914,-0.488
1584599933.661,17.578,26.367,29.785,52.734,12.207
1584599933.665,-7.324,27.344,26.367,-36.133,9.277
1584599933.669,9.277,30.273,26.367,-15.137,36.133
1584599933.673,39.551,34.180,25.391,83.008,45.898
1584599933.677,30.762,31.250,26.367,74.707,-17.090
1584599933.681,-1.953,27.344,27.832,-20.020,6.348
1584599933.685,2.441,27.832,26.367,-35.156,22.949
1584599933.688,36.621,33.203,23.926,58.594,-19.531
1584599933.692,38.086,34.668,24.414,93.750,30.273
1584599933.696,0.488,28.320,24.902,2.930,77.148
1584599933.700,-6.836,27.344,26.367,-50.781,80.566
1584599933.704,29.785,33.203,32.715,31.738,28.809
1584599933.708,42.969,35.645,35.645,101.074,-4.395
1584599933.712,17.090,33.691,32.227,35.156,4.395
1584599933.716,-4.395,31.738,32.227,-38.574,6.348
1584599933.720,22.461,35.156,33.203,18.555,35.156
1584599933.724,45.898,38.574,32.715,100.586,24.902
1584599933.727,22.949,34.668,35.156,63.965,19.043
1584599933.731,-3.418,32.227,35.645,-28.809,26.367
1584599933.735,13.672,35.645,35.156,-15.137,47.363
1584599933.739,49.316,38.574,38.086,83.008,61.523
1584599933.743,37.598,33.691,38.574,84.961,75.195
1584599933.747,-4.395,25.879,40.527,-17.090,77.148
1584599933.751,-0.488,26.855,41.016,-34.668,65.430
1584599933.755,37.598,31.250,40.527,67.871,48.340
1584599933.759,40.039,32.227,41.992,103.027,29.785
1584599933.763,3.906,24.902,38.574,14.648,39.551
1584599933.767,-6.836,20.508,38.086,-41.992,32.227
1584599933.770,31.738,25.391,42.480,33.691,41.992
1584599933.774,47.363,25.879,43.457,105.957,6.836
1584599933.778,15.625,24.902,39.062,38.086,-1.953
1584599933.782,-3.418,25.879,34.668,-44.434,15.625
1584599933.786,27.344,27.344,37.109,0.488,19.531
1584599933.790,51.270,27.344,41.016,83.496,40.527
1584599933.794,30.273,24.902,37.109,55.176,-4.883
1584599933.798,-2.441,22.949,33.203,-33.203,-24.414
1584599933.802,10.254,23.438,33.691,-26.855,-6.836
1584599933.806,48.340,25.879,38.574,72.266,52.246
1584599933.810,41.016,25.879,37.109,84.961,63.477
1584599933.813,-0.488,22.461,29.297,-10.742,14.648
1584599933.817,0.488,24.414,31.250,-42.969,36.621
1584599933.821,33.691,29.785,37.598,49.805,76.172
1584599933.825,38.086,29.297,36.621,103.516,74.707
1584599933.829,7.324,26.367,35.645,20.996,44.434
1584599933.833,-4.883,24.414,34.668,-47.363,27.344
1584599933.837,22.949,26.855,32.715,15.625,38.574
1584599933.841,33.203,27.832,31.738,96.680,72.266
1584599933.845,10.254,25.879,28.320,41.504,26.367
1584599933.849,-10.742,26.367,29.785,-48.340,-53.711
1584599933.852,11.719,31.250,33.203,-10.742,-29.297
1584599933.856,40.527,31.738,32.227,84.961,-3.418
1584599933.860,20.508,25.391,29.297,66.895,5.859
1584599933.864,-13.672,18.555,32.715,-28.809,47.852
1584599933.868,-3.906,21.973,32.227,-34.180,63.477
1584599933.872,31.738,29.297,28.809,62.012,49.805
1584599933.876,30.273,26.367,28.320,82.520,7.324
1584599933.880,-6.348,20.508,25.391,-13.672,30.273
1584599933.884,-11.719,20.508,26.367,-55.664,71.289
1584599933.888,26.367,26.855,30.273,35.645,32.227
1584599933.892,37.598,25.879,31.250,96.680,13.184
1584599933.895,7.324,20.996,30.273,19.043,-19.043
1584599933.899,-4.395,24.414,30.273,-48.340,-12.695
1584599933.903,23.438,26.367,29.297,13.184,1.953
1584599933.907,41.016,24.414,29.785,88.379,-55.176
1584599933.911,17.090,22.949,31.250,46.875,-18.066
1584599933.915,-6.348,22.461,29.297,-36.621,30.762
1584599933.919,21.484,25.879,31.738,-6.348,5.859
1584599933.923,50.781,26.855,35.156,95.215,27.344
1584599933.927,25.879,23.438,35.156,81.055,2.441
1584599933.931,-10.254,22.949,33.691,-21.973,-17.578
1584599933.935,-2.930,25.879,32.715,-32.715,57.617
1584599933.938,33.691,29.785,34.180,62.500,45.898
1584599933.942,33.691,27.832,35.645,83.984,70.312
1584599933.946,-2.441,23.926,34.668,-1.465,100.098
1584599933.950,-8.301,23.438,32.227,-40.527,64.453
1584599933.954,22.461,27.832,33.691,43.945,59.570
1584599933.958,37.598,30.273,33.691,104.492,40.527
1584599933.962,11.230,25.879,29.785,29.785,24.414
1584599933.966,-6.348,24.902,33.691,-44.922,65.918
1584599933.970,20.996,29.785,41.504,9.766,62.012
1584599933.974,40.527,30.273,41.016,94.727,-11.719
1584599933.977,21.973,26.855,37.109,59.082,-30.273
1584599933.981,-4.395,26.855,35.156,-29.785,9.277
1584599933.985,14.160,29.785,37.109,-12.207,64.453
1584599933.989,48.828,30.762,39.062,88.867,70.312
1584599933.993,39.062,29.297,38.574,97.168,39.062
1584599933.997,3.418,25.391,35.645,1.465,-7.324
1584599934.001,5.859,25.391,37.598,-19.531,28.809
1584599934.005,37.109,26.367,40.527,72.266,44.434
1584599934.009,34.668,24.414,35.645,104.004,23.926
1584599934.013,4.883,20.508,31.250,20.020,4.395
1584599934.017,2.441,22.461,31.250,-38.086,4.883
1584599934.020,35.645,29.297,32.715,25.879,74.219
1584599934.024,44.922,31.738,32.715,97.656,44.922
1584599934.028,10.742,26.367,30.762,38.086,41.992
1584599934.032,-14.648,22.461,30.762,-50.293,16.602
1584599934.036,13.184,28.809,34.668,-4.395,9.277
1584599934.040,39.551,29.785,35.156,90.332,66.406
1584599934.044,21.484,23.926,34.180,61.035,28.809
1584599934.048,-4.395,26.855,35.156,-34.180,32.715
1584599934.052,15.137,32.715,36.133,-20.508,5.371
1584599934.056,49.805,31.738,36.621,83.008,-17.578
1584599934.060,41.504,29.785,35.156,88.867,64.453
1584599934.063,5.371,25.391,35.645,-11.719,40.527
1584599934.067,5.371,24.902,39.062,-38.086,15.625
1584599934.071,39.062,28.809,42.969,51.758,12.207
1584599934.075,36.133,24.902,41.992,86.914,-30.273
1584599934.079,1.465,22.461,38.574,2.930,-32.227
1584599934.083,-2.930,24.414,36.621,-49.316,-0.488
1584599934.087,29.785,26.855,38.086,22.461,32.715
1584599934.091,45.410,29.785,43.457,100.098,13.672
1584599934.095,26.855,27.344,44.434,58.105,-6.836
1584599934.099,4.395,27.832,39.551,-23.926,22.461
1584599934.102,21.973,32.715,36.133,-1.465,34.668
1584599934.106,45.898,37.109,36.133,85.449,18.555
1584599934.110,27.832,33.691,35.645,68.359,36.621
1584599934.114,-3.418,27.832,34.668,-30.762,16.602
1584599934.118,3.906,27.344,36.621,-37.598,0.488
1584599934.122,41.504,31.250,37.109,62.500,50.781
1584599934.126,39.551,31.250,37.109,77.637,41.504
1584599934.130,3.906,23.926,37.598,-2.441,32.227
1584599934.134,4.395,26.367,40.527,-29.297,52.734
1584599934.138,42.969,32.227,44.922,42.480,64.941
1584599934.142,51.270,29.785,46.387,100.098,77.148
1584599934.145,18.555,27.344,41.992,29.297,26.367
1584599934.149,0.000,27.832,38.086,-42.969,-1.953
1584599934.153,24.414,30.762,39.551,16.602,18.066
1584599934.157,44.434,32.227,39.062,99.121,49.805
1584599934.161,22.461,30.273,35.156,53.711,39.062
1584599934.165,-0.977,26.367,33.691,-41.016,8.789
1584599934.169,17.578,28.809,36.133,-17.090,30.762
1584599934.173,45.410,35.645,37.109,83.984,47.363
1584599934.177,33.203,34.668,37.598,78.613,60.547
1584599934.181,-2.441,31.250,39.062,-18.555,26.367
1584599934.185,7.324,32.227,37.109,-29.297,12.207
1584599934.188,43.457,35.645,38.086,67.383,41.992
1584599934.192,36.621,30.273,37.598,94.727,13.184
1584599934.196,0.977,24.414,33.203,3.906,3.418
1584599934.200,-5.371,23.926,32.227,-44.434,-1.953
1584599934.204,33.691,31.250,35.645,43.945,-18.555
1584599934.208,53.711,35.156,39.062,109.863,-11.719
1584599934.212,21.973,32.227,36.621,38.086,5.859
1584599934.216,1.465,32.715,31.250,-40.039,40.039
1584599934.220,30.273,33.203,33.691,15.137,17.090
1584599934.224,44.922,34.180,36.133,103.516,24.902
1584599934.227,21.973,35.645,32.227,65.430,18.555
1584599934.231,2.930,31.250,31.738,-22.461,4.883
1584599934.235,18.555,30.762,32.227,-6.348,52.734
1584599934.239,41.992,34.668,29.785,81.055,66.895
1584599934.243,30.762,30.762,31.738,80.078,6.348
1584599934.247,2.930,26.855,37.109,-7.324,-15.137
1584599934.251,8.789,32.227,37.598,-27.344,13.184
1584599934.255,41.504,38.574,36.621,63.477,71.777
1584599934.259,45.410,36.133,36.133,103.516,93.262
1584599934.263,11.230,29.297,34.180,16.602,47.363
1584599934.267,4.395,26.855,34.668,-36.621,52.734
1584599934.270,41.992,30.762,35.645,41.992,-18.066
1584599934.274,54.199,37.109,41.016,104.980,-14.648
1584599934.278,27.344,33.691,41.992,44.922,79.102
1584599934.282,2.441,27.344,35.156,-38.086,33.691
1584599934.286,25.879,33.203,32.227,1.465,20.996
1584599934.290,53.223,35.156,36.133,95.703,31.738
1584599934.294,25.879,26.855,38.574,68.848,11.719
1584599934.298,-6.348,23.926,33.691,-31.250,46.387
1584599934.302,18.555,27.832,32.227,-17.090,83.984
1584599934.306,53.711,31.738,38.086,87.891,51.270
1584599934.310,37.109,32.227,35.645,94.727,55.664
1584599934.313,8.301,29.297,26.367,-8.789,50.781
1584599934.317,17.090,28.320,27.344,-40.039,28.320
1584599934.321,50.293,33.203,31.250,60.059,7.812
1584599934.325,57.617,38.086,33.203,108.887,30.762
1584599934.329,24.902,33.691,30.762,24.414,38.086
1584599934.333,10.742,32.715,26.367,-41.504,17.090
1584599934.337,44.434,38.574,29.297,32.715,47.363
1584599934.341,57.617,36.133,32.227,113.770,25.391
1584599934.345,23.438,27.344,29.297,51.758,43.945
1584599934.349,0.000,26.855,23.926,-40.527,16.113
1584599934.352,24.414,31.738,25.879,-2.930,-16.113
1584599934.356,52.734,31.738,29.297,94.238,13.672
1584599934.360,36.621,28.320,28.320,69.824,0.488
1584599934.364,4.395,24.414,25.391,-25.879,-4.883
1584599934.368,17.090,28.809,26.855,-18.066,-35.156
1584599934.372,48.340,35.645,31.250,80.078,-27.832
1584599934.376,32.715,28.320,31.250,91.797,4.883
1584599934.380,-3.418,23.926,29.785,-0.977,-1.953
1584599934.384,-2.930,26.367,27.832,-36.133,17.578
1584599934.388,30.762,27.832,29.785,46.387,11.719
1584599934.392,36.621,29.297,31.738,96.680,35.156
1584599934.395,7.812,27.344,24.902,23.438,59.570
1584599934.399,-1.465,27.832,20.020,-41.992,38.574
1584599934.403,27.344,29.785,24.902,21.484,10.742
1584599934.407,37.598,28.809,28.320,96.191,-2.930
1584599934.411,14.648,28.809,29.785,50.293,40.527
1584599934.415,-9.277,25.391,28.320,-36.133,83.008
1584599934.419,13.184,27.832,25.391,-8.301,32.715
1584599934.423,44.434,31.250,30.762,89.844,-18.555
1584599934.427,28.809,28.809,29.297,74.707,-50.781
1584599934.431,-1.465,24.902,24.902,-20.020,-41.504
1584599934.435,5.859,24.902,26.855,-26.367,33.691
1584599934.438,40.039,31.250,29.785,72.754,96.680
1584599934.442,39.062,27.832,29.297,102.539,81.055
1584599934.446,4.395,20.996,28.320,10.742,75.684
1584599934.450,0.977,24.902,27.832,-35.156,74.707
1584599934.454,45.898,33.691,30.762,39.551,8.789
1584599934.458,53.223,34.180,32.227,100.098,-3.418
1584599934.462,9.766,27.832,26.855,32.715,20.020
1584599934.466,-2.441,28.809,27.832,-36.133,45.898
1584599934.470,30.762,31.738,30.762,22.461,59.082
1584599934.474,51.758,32.227,32.227,108.398,25.879
1584599934.477,35.156,31.250,31.738,73.242,1.953
1584599934.481,5.371,25.879,27.344,-25.391,-3.906
1584599934.485,16.602,25.879,26.367,-8.789,36.133
1584599934.489,47.363,27.832,29.785,94.238,-19.043
1584599934.493,38.574,25.879,30.762,87.402,-14.160
1584599934.497,1.465,22.461,29.297,-14.160,11.719
1584599934.501,6.348,27.832,29.297,-28.320,2.441
1584599934.505,44.434,36.133,28.320,69.824,28.809
1584599934.509,43.945,34.180,27.344,102.539,54.688
1584599934.513,15.137,29.297,28.809,17.090,39.551
1584599934.517,9.766,28.809,34.180,-30.762,51.270
1584599934.520,41.016,31.250,34.180,48.340,51.270
1584599934.524,53.711,30.762,25.391,109.375,44.434
1584599934.528,24.902,27.344,20.508,41.016,46.387
1584599934.532,5.371,28.809,22.461,-35.645,60.547
1584599934.536,27.344,33.691,24.902,11.719,20.508
1584599934.540,44.434,34.668,23.926,92.773,40.039
1584599934.544,26.855,29.297,25.391,57.617,38.574
1584599934.548,1.465,26.855,26.367,-30.762,-12.695
1584599934.552,14.160,31.250,26.367,-19.531,54.688
1584599934.556,45.898,35.645,27.344,75.684,33.203
1584599934.560,36.133,32.227,25.879,85.938,-24.414
1584599934.563,5.859,27.832,23.926,-3.906,15.137
1584599934.567,9.277,27.344,25.879,-30.273,20.508
1584599934.571,41.016,29.785,27.344,57.129,63.477
1584599934.575,41.504,29.785,27.832,92.285,92.285
1584599934.579,9.766,25.391,26.855,12.207,32.715
1584599934.583,0.488,22.949,23.438,-47.363,7.324
1584599934.587,32.227,26.367,24.414,18.555,47.852
1584599934.591,46.387,31.738,28.320,94.727,64.453
1584599934.595,15.137,26.367,23.926,39.062,11.230
1584599934.599,-8.301,22.461,20.508,-45.898,23.438
1584599934.602,21.484,29.297,24.902,-2.441,25.879
1584599934.606,54.199,34.180,27.344,94.727,37.109
1584599934.610,34.668,31.250,24.414,72.754,61.035
1584599934.614,4.395,25.879,25.391,-21.484,30.762
1584599934.618,22.949,27.832,32.715,-10.742,36.133
1584599934.622,57.617,35.645,33.203,90.332,76.660
1584599934.626,46.387,35.156,27.344,99.609,48.828
1584599934.630,4.883,29.297,24.902,-4.883,71.289
1584599934.634,4.883,33.203,25.879,-38.574,60.059
1584599934.638,41.016,39.551,26.855,55.664,43.945
1584599934.642,49.805,35.645,25.879,106.934,59.082
1584599934.645,22.949,30.762,25.391,27.344,29.297
1584599934.649,10.742,32.715,26.367,-46.387,20.996
1584599934.653,42.480,37.109,30.273,23.438,-38.086
1584599934.657,61.523,39.062,31.738,105.957,-33.203
1584599934.661,31.250,35.645,28.320,52.246,53.223
1584599934.665,2.441,33.691,29.297,-30.273,78.613
1584599934.669,22.461,36.133,30.762,0.488,36.621
1584599934.673,50.781,35.156,29.785,92.285,23.926
1584599934.677,36.133,31.738,26.855,77.637,44.922
1584599934.681,-1.465,29.785,22.949,-23.926,57.129
1584599934.685,2.930,34.668,26.367,-32.715,10.254
1584599934.688,40.039,43.457,29.785,69.336,-6.836
1584599934.692,40.527,42.969,28.320,91.309,38.574
1584599934.696,7.324,33.691,27.344,0.488,34.180
1584599934.700,3.418,28.809,26.367,-38.574,29.785
1584599934.704,36.621,32.715,30.273,44.922,20.020
1584599934.708,41.504,31.250,32.715,98.145,-1.953
1584599934.712,13.672,30.762,32.715,29.297,48.340
1584599934.716,-2.930,33.203,29.785,-42.480,13.672
1584599934.720,23.926,34.668,32.715,12.207,-9.766
1584599934.724,49.316,35.645,37.109,102.539,44.922
1584599934.727,20.996,32.227,34.180,51.270,14.160
1584599934.731,-2.930,29.785,33.203,-39.551,27.344
1584599934.735,20.508,31.250,36.133,-14.160,40.039
1584599934.739,48.340,34.668,36.621,79.590,22.461
1584599934.743,40.527,34.180,37.109,82.031,21.484
1584599934.747,5.859,27.344,36.621,-9.766,72.266
1584599934.751,4.883,27.344,33.203,-29.297,57.129
1584599934.755,35.156,32.715,33.691,56.152,-20.996
1584599934.759,33.203,29.785,33.203,85.449,-33.691
1584599934.763,-1.465,24.902,28.809,-6.836,-46.387
1584599934.767,-4.883,23.438,30.273,-54.688,37.109
1584599934.770,30.762,29.785,33.691,31.738,22.461
1584599934.774,42.969,33.203,33.203,97.656,2.930
1584599934.778,16.602,24.414,32.715,36.133,70.312
1584599934.782,-2.441,22.949,29.785,-44.922,31.738
1584599934.786,20.508,29.297,33.691,5.859,40.039
1584599934.790,40.039,29.297,37.598,100.098,64.453
1584599934.794,24.414,27.832,35.645,65.918,-21.484
1584599934.798,1.465,25.879,33.691,-26.367,-8.789
1584599934.802,12.695,27.344,34.180,-14.160,47.852
1584599934.806,42.480,31.250,32.227,80.566,45.410
1584599934.810,35.156,30.273,29.297,85.449,21.484
1584599934.813,-0.977,23.926,26.855,-11.719,17.090
1584599934.817,1.953,23.926,28.320,-35.645,-30.273
1584599934.821,40.039,28.320,29.785,57.617,-71.289
1584599934.825,42.969,27.344,29.785,93.750,-22.461
1584599934.829,9.277,24.902,29.297,6.348,30.273
1584599934.833,-4.883,24.414,25.879,-49.805,40.527
1584599934.837,20.996,27.344,25.879,26.367,28.320
1584599934.841,41.016,29.297,28.320,100.586,13.672
1584599934.845,15.625,25.391,26.855,41.992,32.715
1584599934.849,-12.695,19.531,26.367,-44.922,33.203
1584599934.852,17.578,24.902,27.344,-1.953,4.883
1584599934.856,50.293,30.273,28.320,90.332,-23.438
1584599934.860,32.227,25.879,32.227,66.406,-11.719
1584599934.864,4.395,22.949,29.297,-26.367,57.129
1584599934.868,13.184,24.902,23.926,-22.949,90.332
1584599934.872,37.598,28.809,26.855,70.312,99.609
1584599934.876,29.785,29.785,29.785,84.961,65.918
1584599934.880,-2.441,26.367,25.391,-8.301,32.227
1584599934.884,-1.465,23.438,24.902,-45.410,62.012
1584599934.888,34.180,26.855,29.785,48.340,52.734
1584599934.892,40.527,29.297,28.809,104.492,35.156
1584599934.895,9.766,26.855,28.320,25.879,37.109
1584599934.899,-5.859,28.320,29.785,-44.434,-4.395
1584599934.903,24.414,31.738,31.738,22.461,-1.953
1584599934.907,42.969,30.762,34.180,101.562,0.977
1584599934.911,15.137,26.855,31.738,49.316,25.391
1584599934.915,-7.812,24.414,28.320,-38.086,72.266
1584599934.919,19.531,28.809,34.180,1.953,72.266
1584599934.923,51.270,33.203,37.598,105.957,36.621
1584599934.927,23.438,32.227,30.762,79.590,40.039
1584599934.931,-16.113,28.809,22.461,-25.879,74.219
1584599934.935,0.488,29.785,21.973,-26.367,50.293
1584599934.938,36.133,37.109,24.414,67.383,0.000
1584599934.942,35.156,39.062,24.902,86.426,18.555
1584599934.946,7.324,35.645,26.367,1.465,37.109
1584599934.950,3.418,34.180,25.391,-39.062,25.391
1584599934.954,38.086,38.086,23.438,45.410,28.809
1584599934.958,44.434,33.691,25.879,97.168,-7.812
1584599934.962,13.184,25.879,25.391,20.020,29.785
1584599934.966,1.465,25.879,24.902,-48.340,32.715
1584599934.970,25.879,28.809,27.344,11.230,0.000
1584599934.974,42.969,29.785,29.785,98.633,35.156
1584599934.977,21.484,27.832,27.832,61.523,23.438
1584599934.981,-4.883,24.414,25.879,-31.738,41.016
1584599934.985,17.090,25.879,24.902,-15.137,79.102
1584599934.989,53.711,30.762,26.367,84.473,34.668
1584599934.993,40.527,30.762,29.297,78.613,-44.434
1584599934.997,4.883,26.855,27.344,-23.926,-56.641
1584599935.001,10.742,29.297,31.738,-35.156,15.625
1584599935.005,43.457,36.621,34.668,62.988,65.430
1584599935.009,41.992,34.668,32.715,98.145,55.664
1584599935.013,6.836,27.832,32.715,14.160,59.570
1584599935.017,-0.977,27.344,31.250,-38.086,27.344
1584599935.020,33.203,31.738,32.227,31.250,26.855
1584599935.024,48.340,34.180,34.668,98.145,27.344
1584599935.028,18.555,30.273,34.180,39.551,25.391
1584599935.032,0.000,27.832,32.227,-36.621,67.383
1584599935.036,27.344,32.715,32.227,12.695,47.852
1584599935.040,50.293,34.668,34.668,98.633,67.383
1584599935.044,27.832,33.691,34.180,61.523,116.699
1584599935.048,-0.977,31.738,31.250,-32.227,73.242
1584599935.052,15.625,33.203,32.227,-17.090,-10.742
1584599935.056,46.387,35.156,34.668,77.637,-9.766
1584599935.060,37.598,32.715,33.203,83.984,52.246
1584599935.063,1.465,26.367,30.762,-12.695,42.480
1584599935.067,3.906,22.461,38.574,-41.016,29.785
1584599935.071,42.969,31.738,43.457,61.035,44.922
1584599935.075,43.457,31.738,33.691,98.145,26.367
1584599935.079,8.301,22.949,26.367,7.812,9.766
1584599935.083,0.488,23.926,29.297,-45.898,-14.160
1584599935.087,37.109,28.320,35.156,32.715,-52.246
1584599935.091,50.293,25.391,35.156,104.980,-26.367
1584599935.095,20.020,20.996,30.762,41.992,-2.441
1584599935.099,0.488,21.973,30.762,-41.016,-10.742
1584599935.102,20.996,25.391,31.250,-2.441,24.414
1584599935.106,43.457,24.902,31.250,88.867,37.109
1584599935.110,26.367,24.414,29.785,63.477,8.789
1584599935.114,-0.977,27.832,28.320,-31.250,28.809
1584599935.118,14.648,29.297,27.832,-20.508,25.879
1584599935.122,51.270,31.250,27.832,81.055,-22.461
1584599935.126,42.480,33.691,27.832,91.797,-40.039
1584599935.130,8.789,27.344,25.879,1.953,26.855
1584599935.134,15.137,23.438,28.320,-25.879,75.684
1584599935.138,46.875,30.273,32.227,62.988,-0.977
1584599935.142,48.828,31.738,31.738,107.422,-41.504
1584599935.145,18.555,25.879,28.320,21.484,-16.113
1584599935.149,12.695,27.344,27.344,-39.551,1.953
1584599935.153,41.992,30.762,27.832,26.855,63.965
1584599935.157,49.805,30.762,30.762,96.680,45.410
1584599935.161,25.879,32.715,29.785,49.316,-2.930
1584599935.165,0.488,30.762,28.809,-32.715,7.324
1584599935.169,20.996,30.273,31.738,1.953,20.996
1584599935.173,52.246,31.738,30.273,94.238,64.941
1584599935.177,34.668,30.273,28.320,78.125,11.719
1584599935.181,1.465,25.879,26.367,-16.602,-40.527
1584599935.185,16.602,26.367,29.297,-22.949,2.930
1584599935.188,48.340,31.250,32.715,70.312,-1.953
1584599935.192,39.062,29.297,30.762,92.285,11.230
1584599935.196,4.883,24.414,28.809,4.883,88.379
1584599935.200,-3.418,24.902,26.855,-44.434,49.316
1584599935.204,30.273,30.273,29.297,36.621,13.184
1584599935.208,44.434,30.762,32.227,100.586,8.789
1584599935.212,9.766,26.367,31.250,31.738,40.039
1584599935.216,-5.859,23.926,32.227,-39.062,91.797
1584599935.220,27.832,27.344,34.668,21.973,21.484
1584599935.224,49.316,29.785,36.133,110.352,-33.691
1584599935.227,24.414,24.902,35.645,58.594,30.762
1584599935.231,-4.883,22.949,33.203,-35.156,31.738
1584599935.235,17.090,27.832,35.156,-7.324,-12.207
1584599935.239,57.617,33.203,35.645,90.820,-17.090
1584599935.243,38.086,26.855,35.645,78.125,39.551
1584599935.247,-12.695,17.578,36.621,-36.133,66.406
1584599935.251,-4.883,20.508,34.668,-51.270,37.598
1584599935.255,35.645,26.367,36.133,54.199,30.273
1584599935.259,31.250,21.973,37.598,88.867,51.270
1584599935.263,-1.465,16.113,35.156,3.906,13.672
1584599935.267,1.465,20.996,31.738,-42.480,-32.715
1584599935.270,37.598,27.344,35.645,40.039,9.766
1584599935.274,45.898,21.973,37.109,103.516,71.289
1584599935.278,13.672,19.043,32.227,34.180,86.914
1584599935.282,-5.859,25.391,32.227,-40.527,24.902
1584599935.286,20.508,27.344,33.203,10.254,-47.363
1584599935.290,46.875,28.320,32.227,92.285,25.879
1584599935.294,26.367,26.855,29.785,52.734,64.941
1584599935.298,-3.418,23.926,27.832,-34.668,17.578
1584599935.302,15.137,25.391,29.785,-20.020,0.977
1584599935.306,41.016,24.414,32.715,75.684,35.645
1584599935.310,31.738,21.484,31.250,85.449,51.270
1584599935.313,2.441,19.043,30.273,-7.324,18.066
1584599935.317,8.301,19.043,28.809,-30.273,-8.789
1584599935.321,46.387,25.391,27.832,58.594,-41.504
1584599935.325,50.781,27.344,28.320,95.703,5.371
1584599935.329,13.672,20.508,25.391,16.602,32.715
1584599935.333,-0.488,18.555,24.902,-39.551,52.734
1584599935.337,32.715,22.461,28.809,26.855,77.637
1584599935.341,48.828,28.809,28.809,97.656,39.062
1584599935.345,15.625,25.879,26.367,41.016,-10.742
1584599935.349,-6.348,19.043,26.367,-46.875,13.672
1584599935.352,20.996,20.996,25.391,-3.906,25.879
1584599935.356,39.551,23.926,29.785,91.797,45.898
1584599935.360,21.973,24.414,32.227,64.941,44.922
1584599935.364,-1.953,22.949,25.879,-29.297,1.953
1584599935.368,8.789,24.902,27.344,-25.391,73.242
1584599935.372,35.156,28.320,30.762,70.801,75.684
1584599935.376,27.832,23.438,27.832,83.984,7.324
1584599935.380,-3.906,19.531,24.902,-8.789,-2.441
1584599935.384,-0.977,21.973,28.320,-36.133,8.301
1584599935.388,38.574,27.344,31.738,55.176,30.273
1584599935.392,47.363,32.227,32.227,104.980,-28.320
1584599935.395,17.578,25.391,32.227,30.762,-20.996
1584599935.399,10.254,24.902,30.762,-30.273,47.363
1584599935.403,36.133,32.715,27.344,33.203,4.395
1584599935.407,43.457,32.227,22.949,92.285,12.695
1584599935.411,13.672,25.391,23.438,38.574,46.875
1584599935.415,-10.254,21.973,23.438,-41.016,-1.953
1584599935.419,16.602,30.762,23.438,-9.277,-19.531
1584599935.423,43.945,34.180,24.902,86.914,4.883
1584599935.427,23.438,27.344,26.367,76.172,-3.418
1584599935.431,-3.418,26.367,24.414,-18.555,15.137
1584599935.435,14.160,31.250,24.902,-23.438,78.613
1584599935.438,49.805,33.691,29.785,75.684,33.203
1584599935.442,44.434,35.645,29.785,91.309,24.902
1584599935.446,7.324,35.156,23.438,-3.418,64.941
1584599935.450,8.301,32.715,21.973,-35.645,33.691
1584599935.454,41.992,37.598,24.902,49.316,8.301
1584599935.458,44.922,39.551,25.391,98.633,38.574
1584599935.462,17.090,31.738,25.391,31.738,41.504
1584599935.466,5.859,28.809,24.902,-35.645,-35.645
1584599935.470,34.180,31.738,26.855,24.902,0.000
1584599935.474,57.129,34.180,26.855,118.164,16.602
1584599935.477,35.645,33.691,23.926,65.430,1.465
1584599935.481,5.371,28.320,22.949,-33.691,22.461
1584599935.485,26.855,33.203,22.949,-8.301,30.762
1584599935.489,59.082,41.016,28.320,89.844,33.203
1584599935.493,40.039,37.109,31.738,81.543,24.414
1584599935.497,8.301,31.250,27.344,-11.719,19.531
1584599935.501,16.113,31.738,29.297,-21.484,-18.555
1584599935.505,44.434,35.645,33.203,73.730,25.879
1584599935.509,44.434,35.156,32.715,105.469,86.426
1584599935.513,11.230,29.785,30.762,11.719,36.133
1584599935.517,4.395,30.273,30.273,-39.551,52.246
1584599935.520,38.574,36.621,30.762,37.598,37.109
1584599935.524,49.316,38.086,34.180,103.516,-4.883
1584599935.528,21.484,33.203,33.691,40.039,26.855
1584599935.532,0.488,31.250,27.832,-45.410,72.266
1584599935.536,24.414,33.691,31.250,7.812,66.406
1584599935.540,50.293,30.273,35.156,105.957,30.273
1584599935.544,32.227,25.879,30.762,72.266,53.223
1584599935.548,3.418,21.973,29.785,-26.855,44.922
1584599935.552,18.066,23.438,33.691,-14.648,71.289
1584599935.556,48.340,28.809,33.691,80.566,46.875
1584599935.560,37.109,26.855,31.738,78.125,3.906
1584599935.563,3.418,23.926,30.273,-16.602,-15.137
1584599935.567,9.766,24.414,30.762,-30.273,-7.324
1584599935.571,50.293,26.855,35.156,68.848,53.223
1584599935.575,50.781,23.926,35.645,102.051,41.016
1584599935.579,18.066,21.484,31.738,14.648,2.441
1584599935.583,11.719,24.414,30.762,-34.180,29.297
1584599935.587,41.016,26.855,31.250,43.945,17.578
1584599935.591,52.246,28.809,29.297,108.398,30.273
1584599935.595,19.531,26.855,28.320,44.434,35.645
1584599935.599,-4.395,24.902,27.344,-38.574,-7.324
1584599935.602,24.902,33.203,25.391,5.859,23.926
1584599935.606,48.340,33.203,26.367,97.168,79.102
1584599935.610,25.879,22.461,25.391,66.895,49.316
1584599935.614,-2.930,19.531,22.949,-23.926,19.043
1584599935.618,7.812,20.996,24.414,-18.066,51.758
1584599935.622,41.992,23.926,25.879,72.754,52.734
1584599935.626,36.621,24.414,26.855,86.426,46.387
1584599935.630,1.465,22.461,24.902,-0.977,90.332
1584599935.634,3.906,26.367,24.902,-29.297,101.562
1584599935.638,39.551,32.227,27.344,58.105,62.988
1584599935.642,41.992,30.762,28.320,99.609,-19.531
1584599935.645,5.859,21.973,25.879,14.648,-6.348
1584599935.649,-4.883,19.531,25.391,-48.340,0.000
1584599935.653,30.273,27.344,30.273,23.438,-69.824
1584599935.657,48.828,30.273,30.273,100.098,0.977
1584599935.661,21.973,24.414,26.367,52.734,45.898
1584599935.665,-6.836,23.926,26.367,-34.668,39.062
1584599935.669,16.113,27.832,26.855,-5.371,33.691
1584599935.673,42.480,29.297,28.809,90.820,9.766
1584599935.677,22.949,27.832,27.344,72.754,20.508
1584599935.681,-5.371,23.926,24.414,-32.715,63.477
1584599935.685,9.766,23.438,28.320,-35.645,44.434
1584599935.688,49.805,28.320,31.738,74.219,5.859
1584599935.692,41.992,28.809,29.297,91.309,15.625
1584599935.696,7.324,25.391,25.879,-10.254,38.574
1584599935.700,13.672,24.902,25.879,-42.480,12.207
1584599935.704,54.688,27.344,27.832,52.734,36.621
1584599935.708,53.223,26.855,28.809,104.492,47.363
1584599935.712,13.672,22.461,27.832,21.484,3.418
1584599935.716,-0.488,19.531,27.832,-47.363,-3.418
1584599935.720,23.926,21.484,29.297,15.625,-35.645
1584599935.724,46.875,25.391,27.832,95.215,-10.742
1584599935.727,28.809,22.949,26.367,51.270,52.246
1584599935.731,3.418,21.973,24.414,-36.133,45.898
1584599935.735,23.926,25.391,28.809,-10.742,17.578
1584599935.739,50.293,28.809,30.273,84.961,26.855
1584599935.743,34.180,29.297,29.297,75.684,30.273
1584599935.747,-3.418,25.879,27.832,-22.461,71.289
1584599935.751,-2.441,22.949,27.344,-38.086,81.055
1584599935.755,31.738,25.391,29.785,59.570,38.574
1584599935.759,33.691,29.297,29.785,92.773,45.410
1584599935.763,-0.488,25.391,27.832,0.000,72.754
1584599935.767,-6.348,23.438,29.297,-47.852,63.477
1584599935.770,30.762,26.855,34.668,32.715,17.090
1584599935.774,46.875,25.879,37.109,95.215,10.254
1584599935.778,13.184,22.461,34.668,29.297,59.082
1584599935.782,-9.277,21.484,31.250,-44.922,99.609
1584599935.786,20.508,27.344,34.180,1.953,11.230
1584599935.790,41.016,29.297,35.645,84.961,8.301
1584599935.794,19.531,25.391,29.785,51.758,8.789
1584599935.798,-7.812,20.508,29.297,-40.527,27.344
1584599935.802,8.789,24.902,35.156,-20.020,60.059
1584599935.806,45.898,32.715,33.691,83.496,-20.020
1584599935.810,37.109,28.320,32.715,81.055,-15.137
1584599935.813,-1.953,23.438,31.250,-20.508,26.367
1584599935.817,0.488,25.391,26.367,-44.922,54.688
1584599935.821,40.039,32.715,30.762,57.129,62.988
1584599935.825,41.016,33.691,37.109,100.586,37.109
1584599935.829,4.395,24.902,31.250,7.812,30.273
1584599935.833,-1.465,24.414,27.832,-46.875,11.719
1584599935.837,36.133,29.297,33.691,35.156,31.250
1584599935.841,47.852,28.320,36.621,102.051,46.875
1584599935.845,15.625,25.391,32.227,36.133,19.043
1584599935.849,-0.977,26.855,28.320,-43.945,-14.160
1584599935.852,21.484,27.344,29.297,0.488,14.648
1584599935.856,39.062,26.367,31.250,86.426,42.969
1584599935.860,20.508,25.391,29.297,50.781,38.574
1584599935.864,-4.395,25.879,26.367,-45.410,52.734
1584599935.868,9.766,30.273,26.855,-26.367,29.785
1584599935.872,42.969,32.227,30.273,78.613,13.184
1584599935.876,41.504,28.809,31.738,90.820,6.348
1584599935.880,7.812,26.367,27.344,-3.418,36.133
1584599935.884,2.441,24.414,28.320,-33.203,45.898
1584599935.888,37.598,25.879,31.738,60.547,38.574
1584599935.892,41.992,26.855,34.180,101.562,19.531
1584599935.895,5.859,21.484,34.668,19.043,15.625
1584599935.899,-1.953,23.926,32.715,-40.039,50.293
1584599935.903,28.809,32.227,30.762,22.461,57.617
1584599935.907,42.480,29.785,33.203,88.379,14.648
1584599935.911,17.090,27.344,32.227,38.574,10.742
1584599935.915,-5.371,25.879,29.297,-39.062,37.598
1584599935.919,17.578,28.809,30.762,-2.441,20.020
1584599935.923,45.898,30.762,34.668,95.703,35.645
1584599935.927,34.668,26.367,35.645,77.637,25.879
1584599935.931,7.324,22.949,31.738,-19.043,-15.625
1584599935.935,12.695,26.855,31.738,-18.555,2.441
1584599935.938,40.039,34.180,33.203,80.078,21.973
1584599935.942,37.598,32.227,31.738,98.145,0.977
1584599935.946,5.859,26.367,30.273,1.465,-6.348
1584599935.950,2.441,26.367,30.273,-39.062,4.883
1584599935.954,33.203,30.762,34.668,50.293,-16.602
1584599935.958,42.480,32.227,36.133,104.980,-30.762
1584599935.962,15.625,27.832,30.273,28.809,21.973
1584599935.966,6.348,23.926,31.738,-36.621,9.277
1584599935.970,31.738,27.832,35.645,23.926,-27.832
1584599935.974,44.922,30.762,37.109,101.562,17.578
1584599935.977,19.043,26.855,34.668,54.688,62.988
1584599935.981,-13.184,25.391,31.250,-36.621,71.289
1584599935.985,10.254,28.320,34.180,-5.859,43.457
1584599935.989,42.969,28.320,36.621,89.844,-0.977
1584599935.993,26.367,25.391,33.691,85.449,19.531
1584599935.997,-6.348,20.020,28.809,-20.020,7.812
1584599936.001,5.371,20.996,33.203,-37.598,13.184
1584599936.005,40.039,27.344,33.691,68.848,2.930
1584599936.009,36.621,28.809,30.273,90.820,-3.418
1584599936.013,3.418,28.320,29.785,0.977,31.738
1584599936.017,-2.930,27.344,31.738,-42.969,-14.160
1584599936.020,31.738,31.738,31.738,41.504,47.363
1584599936.024,43.945,31.250,27.344,100.586,81.055
1584599936.028,12.207,24.902,26.367,26.855,20.508
1584599936.032,-8.301,24.414,27.344,-42.480,41.992
1584599936.036,24.902,28.809,30.762,14.648,35.645
1584599936.040,53.223,30.273,31.250,94.238,0.000
1584599936.044,26.855,32.227,28.809,51.270,18.555
1584599936.048,0.977,32.715,29.785,-31.738,60.059
1584599936.052,21.484,33.203,30.273,-11.230,92.285
1584599936.056,52.734,38.086,30.762,87.891,65.430
1584599936.060,38.086,32.715,31.738,89.844,54.688
1584599936.063,1.465,26.367,29.785,-13.184,59.570
1584599936.067,8.301,29.297,28.320,-38.574,6.348
1584599936.071,44.434,33.691,30.273,58.594,8.301
1584599936.075,46.875,34.180,32.227,97.656,-7.812
1584599936.079,11.230,29.785,28.809,15.625,27.344
1584599936.083,5.371,27.832,26.367,-35.645,46.875
1584599936.087,43.945,33.691,33.203,35.645,20.996
1584599936.091,56.152,34.180,34.668,105.469,15.625
1584599936.095,27.344,30.762,30.273,47.852,-13.184
1584599936.099,6.836,30.273,28.809,-32.715,30.762
1584599936.102,29.785,29.785,29.297,12.207,46.387
1584599936.106,53.223,31.738,28.809,102.539,39.551
1584599936.110,34.668,28.809,28.809,72.754,18.066
1584599936.114,5.371,24.902,26.855,-23.438,15.137
1584599936.118,18.066,31.250,22.461,-16.113,48.828
1584599936.122,51.758,36.133,24.902,80.078,18.066
1584599936.126,46.875,31.738,25.879,86.426,-14.160
1584599936.130,10.742,28.809,25.391,-7.324,-4.883
1584599936.134,12.207,34.180,28.320,-34.180,8.789
1584599936.138,51.758,39.062,30.762,57.129,39.551
1584599936.142,50.781,34.668,31.738,102.051,58.105
1584599936.145,9.766,29.297,27.832,16.602,8.789
1584599936.149,2.441,30.273,28.320,-42.969,6.836
1584599936.153,35.645,36.133,32.227,29.785,30.762
1584599936.157,46.875,33.691,35.156,101.074,41.504
1584599936.161,19.043,26.367,32.715,45.410,25.391
1584599936.165,-1.465,28.320,28.320,-36.621,-0.488
1584599936.169,24.902,32.715,30.273,2.930,-33.691
1584599936.173,49.316,30.273,32.227,90.820,-37.598
1584599936.177,27.832,25.391,30.762,66.406,15.625
1584599936.181,-2.441,23.438,30.273,-26.367,71.289
1584599936.185,11.230,30.273,30.273,-21.484,98.633
1584599936.188,42.480,33.691,29.297,71.777,74.707
1584599936.192,38.086,29.785,32.227,80.566,13.672
1584599936.196,5.371,26.367,32.715,-11.719,11.230
1584599936.200,1.465,27.832,28.320,-41.016,27.344
1584599936.204,36.133,32.715,28.320,48.340,53.711
1584599936.208,45.898,32.715,27.344,102.051,80.078
1584599936.212,15.137,29.785,25.391,25.391,30.273
1584599936.216,0.000,25.391,26.855,-41.992,-1.465
1584599936.220,30.273,29.785,27.344,22.949,65.430
1584599936.224,44.922,33.203,25.391,101.562,81.543
1584599936.227,15.625,27.832,25.879,49.805,11.230
1584599936.231,-8.301,22.461,24.414,-41.016,0.977
1584599936.235,12.695,25.879,25.879,-15.137,24.414
1584599936.239,41.504,34.668,31.738,79.590,43.457
1584599936.243,29.297,30.762,31.250,73.730,39.551
1584599936.247,-2.930,27.344,30.762,-18.066,1.953
1584599936.251,2.441,30.762,33.203,-26.855,23.438
1584599936.255,41.016,31.738,35.645,72.266,61.523
1584599936.259,41.016,29.297,33.691,102.051,121.582
1584599936.263,1.953,26.855,31.738,10.254,122.559
1584599936.267,-0.977,27.832,35.156,-33.203,43.945
1584599936.270,35.645,29.297,36.621,46.875,35.156
1584599936.274,42.480,30.762,33.203,100.098,44.922
1584599936.278,7.324,26.367,28.809,21.973,99.121
1584599936.282,-10.254,26.855,27.344,-58.105,51.270
1584599936.286,21.973,34.180,29.785,4.395,0.488
1584599936.290,41.504,34.668,31.738,95.703,77.637
1584599936.294,17.090,29.297,27.344,50.781,19.531
1584599936.298,-7.812,27.344,25.879,-41.016,-31.250
1584599936.302,12.695,31.250,32.227,-11.719,50.781
1584599936.306,46.875,32.715,33.203,92.773,74.219
1584599936.310,39.551,31.250,30.762,84.473,14.648
1584599936.313,3.906,29.785,28.320,-17.578,-3.418
1584599936.317,5.371,28.809,30.273,-34.180,25.879
1584599936.321,40.039,31.250,31.250,62.500,49.316
1584599936.325,40.039,28.809,30.762,91.797,24.414
1584599936.329,1.465,26.855,27.832,-1.465,14.160
1584599936.333,-8.789,25.391,26.367,-48.340,15.137
1584599936.337,30.273,29.297,29.297,34.180,69.824
1584599936.341,43.457,33.203,32.227,100.098,107.910
1584599936.345,9.766,26.855,32.227,35.645,27.832
1584599936.349,-10.742,24.414,29.785,-43.457,20.020
1584599936.352,15.625,30.762,30.762,3.418,25.879
1584599936.356,41.504,35.156,31.738,89.355,41.992
1584599936.360,22.949,31.250,29.297,56.641,59.570
1584599936.364,-7.812,27.832,25.879,-37.598,22.461
1584599936.368,9.277,26.855,27.344,-27.832,-11.230
1584599936.372,44.434,28.809,32.227,66.895,-29.297
1584599936.376,31.250,30.762,30.273,74.219,52.734
1584599936.380,-7.324,24.902,27.832,-19.531,32.715
1584599936.384,1.465,25.391,30.762,-42.480,-36.133
1584599936.388,39.062,32.715,31.250,57.129,15.625
1584599936.392,39.062,32.227,30.762,99.121,40.527
1584599936.395,5.371,25.879,29.297,13.672,43.457
1584599936.399,-4.395,25.391,26.367,-45.898,57.129
1584599936.403,30.273,30.273,25.391,28.809,43.457
1584599936.407,51.270,33.691,28.320,104.980,14.648
1584599936.411,19.531,29.297,28.809,46.387,11.719
1584599936.415,-18.066,21.973,27.344,-49.316,8.301
1584599936.419,9.277,25.879,32.715,-11.719,32.715
1584599936.423,44.434,33.203,32.715,86.914,18.555
1584599936.427,23.438,27.832,27.344,59.570,38.574
1584599936.431,-2.930,23.438,24.414,-32.715,23.926
1584599936.435,10.742,28.809,26.367,-26.367,-20.020
1584599936.438,44.922,32.227,29.785,73.242,7.812
1584599936.442,38.086,26.855,30.273,91.309,25.391
1584599936.446,0.488,20.508,27.832,-4.395,46.875
1584599936.450,2.441,23.438,26.367,-38.086,35.156
1584599936.454,35.645,27.832,28.320,49.805,22.949
1584599936.458,41.504,26.855,32.227,100.586,34.180
1584599936.462,7.812,25.391,31.738,18.066,18.555
1584599936.466,-3.906,27.344,29.785,-50.293,12.695
1584599936.470,27.832,29.785,31.738,19.043,41.504
1584599936.474,46.387,33.203,31.250,95.215,30.273
1584599936.477,20.996,31.250,25.879,42.969,-18.066
1584599936.481,-8.301,26.367,24.414,-41.992,-10.254
1584599936.485,14.160,32.227,29.297,-8.301,60.547
1584599936.489,45.898,35.156,31.250,87.402,59.082
1584599936.493,28.320,30.762,29.297,75.684,46.387
1584599936.497,-7.812,25.879,28.320,-24.902,58.594
1584599936.501,4.883,26.855,29.297,-32.715,78.125
1584599936.505,40.527,30.762,31.250,67.871,66.406
1584599936.509,39.551,28.320,33.691,94.727,21.484
1584599936.513,5.371,23.438,34.180,5.859,27.344
1584599936.517,1.465,24.414,33.203,-38.086,30.273
1584599936.520,34.180,27.832,33.203,37.598,39.062
1584599936.524,43.945,30.273,31.250,96.191,13.672
1584599936.528,15.625,25.879,28.320,24.902,-9.766
1584599936.532,-4.395,22.949,28.809,-52.734,-6.348
1584599936.536,25.391,29.785,27.832,9.766,31.250
1584599936.540,51.270,31.738,28.320,99.609,39.551
1584599936.544,28.320,24.902,26.367,53.223,-10.742
1584599936.548,-1.465,24.414,26.367,-39.551,6.836
1584599936.552,11.719,26.367,32.715,-14.160,14.160
1584599936.556,42.480,27.344,31.738,82.520,36.133
1584599936.560,32.227,27.344,28.809,80.566,-9.277
1584599936.563,1.953,22.461,27.344,-17.090,-1.953
1584599936.567,13.672,24.414,28.320,-39.062,79.590
1584599936.571,45.410,32.715,31.738,53.711,47.363
1584599936.575,42.969,26.367,32.227,89.355,37.109
1584599936.579,7.324,17.578,30.762,1.953,94.238
1584599936.583,-2.930,19.531,25.391,-51.270,47.852
1584599936.587,36.133,25.879,26.367,32.227,-7.812
1584599936.591,55.176,28.320,31.738,105.469,58.105
1584599936.595,22.949,22.949,29.785,41.992,38.574
1584599936.599,1.953,20.996,26.855,-36.133,-25.879
1584599936.602,30.273,27.344,27.344,14.160,-10.742
1584599936.606,52.246,29.785,28.809,104.004,9.277
1584599936.610,26.367,26.367,27.344,65.918,4.883
1584599936.614,1.465,22.949,24.414,-31.738,-53.223
1584599936.618,21.484,26.855,21.973,-16.113,-24.902
1584599936.622,50.293,33.203,23.438,87.891,31.250
1584599936.626,42.480,30.273,23.438,93.750,38.086
1584599936.630,5.859,26.367,21.484,-5.859,21.973
1584599936.634,12.695,30.273,24.902,-31.250,3.418
1584599936.638,48.828,33.203,24.414,58.105,18.066
1584599936.642,49.805,33.203,26.367,97.168,17.090
1584599936.645,16.602,28.320,27.344,17.578,25.879
1584599936.649,5.859,23.926,26.855,-37.109,12.695
1584599936.653,36.133,26.367,25.391,31.250,24.902
1584599936.657,49.316,26.855,24.902,102.051,16.602
1584599936.661,27.832,21.484,29.297,56.152,14.648
1584599936.665,7.324,20.020,29.297,-17.090,12.207
1584599936.669,23.438,27.344,24.902,5.859,-16.113
1584599936.673,40.527,31.250,23.438,86.426,43.945
1584599936.677,20.996,31.738,21.484,64.941,68.359
1584599936.681,-8.301,26.855,22.461,-28.320,33.691
1584599936.685,8.789,25.391,28.320,-25.391,35.645
1584599936.688,43.457,29.785,29.297,73.242,69.824
1584599936.692,34.668,30.273,27.832,92.285,32.715
1584599936.696,5.371,29.785,22.949,0.000,29.785
1584599936.700,5.371,27.832,22.461,-38.086,40.039
1584599936.704,36.621,31.250,25.391,42.969,11.719
1584599936.708,46.387,33.203,25.391,95.215,48.340
1584599936.712,17.578,28.320,24.414,19.531,11.230
1584599936.716,4.395,25.391,26.855,-48.828,20.996
1584599936.720,32.715,30.273,33.691,20.508,53.711
1584599936.724,48.340,34.668,33.203,101.562,11.230
1584599936.727,22.949,31.250,26.855,53.711,32.715
1584599936.731,-0.977,26.367,22.949,-36.621,91.797
1584599936.735,21.973,30.273,24.414,-7.324,69.824
1584599936.739,50.781,34.180,27.344,88.379,37.109
1584599936.743,32.715,30.273,26.855,73.242,61.523
1584599936.747,0.977,25.391,23.926,-25.879,20.020
1584599936.751,11.719,28.320,24.414,-36.621,-14.648
1584599936.755,47.363,34.180,27.344,69.336,38.086
1584599936.759,43.945,33.691,26.367,98.145,32.715
1584599936.763,5.371,26.855,24.902,-2.441,22.461
1584599936.767,1.953,25.879,27.832,-46.387,24.414
1584599936.770,42.969,31.738,30.762,41.992,24.902
1584599936.774,49.805,33.691,28.809,98.633,31.250
1584599936.778,16.602,29.297,25.391,25.391,20.996
1584599936.782,2.441,24.414,26.367,-46.387,-9.766
1584599936.786,29.785,25.391,30.762,12.695,16.113
1584599936.790,47.852,24.902,33.691,96.191,32.227
1584599936.794,22.949,23.926,33.691,51.758,56.641
1584599936.798,-0.488,23.438,32.227,-36.133,70.801
1584599936.802,21.973,25.879,32.715,-6.348,18.555
1584599936.806,51.758,27.344,35.156,85.449,24.414
1584599936.810,38.086,24.414,34.180,77.637,37.109
1584599936.813,2.930,23.926,28.809,-11.230,25.879
1584599936.817,10.254,26.367,31.250,-29.297,-9.277
1584599936.821,43.457,31.738,33.691,62.012,22.461
1584599936.825,39.551,31.250,31.250,90.332,19.043
1584599936.829,2.441,23.926,28.809,2.441,-14.160
1584599936.833,-3.418,23.438,29.785,-45.410,6.348
1584599936.837,32.227,32.715,33.203,33.691,0.000
1584599936.841,48.340,35.156,33.203,101.562,-20.020
1584599936.845,17.090,26.855,29.297,37.109,-11.719
1584599936.849,-5.859,22.949,30.273,-40.527,-26.855
1584599936.852,26.367,27.832,33.691,8.789,-15.625
1584599936.856,54.199,32.227,31.738,95.703,38.086
1584599936.860,30.762,28.809,29.785,65.430,39.551
1584599936.864,2.930,23.926,28.320,-22.949,25.879
1584599936.868,20.996,27.344,30.762,-9.277,77.637
1584599936.872,52.246,29.785,33.203,89.844,46.387
1584599936.876,37.598,28.320,31.250,93.262,5.371
1584599936.880,0.000,25.879,27.344,-4.883,56.152
1584599936.884,3.418,25.391,26.367,-30.273,97.656
1584599936.888,36.621,27.344,31.250,60.547,94.238
1584599936.892,37.598,24.414,31.738,97.168,32.715
1584599936.895,0.977,19.531,27.832,6.348,18.066
1584599936.899,-6.348,20.996,27.832,-49.316,18.555
1584599936.903,31.738,26.855,33.691,31.250,59.570
1584599936.907,45.898,26.367,32.715,100.098,64.941
1584599936.911,20.020,22.461,26.855,36.621,7.812
1584599936.915,2.441,27.344,28.320,-42.969,-23.926
1584599936.919,25.879,34.668,28.320,1.953,17.090
1584599936.923,50.781,34.180,29.297,95.703,-23.438
1584599936.927,30.762,27.344,30.762,68.848,-54.199
1584599936.931,2.930,22.949,29.297,-24.414,-7.324
1584599936.935,18.066,24.902,26.855,-19.531,12.207
1584599936.938,48.340,27.344,28.809,77.637,57.129
1584599936.942,37.109,25.879,28.809,84.473,85.449
1584599936.946,0.977,24.414,25.391,-13.184,79.590
1584599936.950,1.953,24.414,24.414,-39.551,23.926
1584599936.954,37.598,31.250,25.879,50.781,13.184
1584599936.958,43.945,33.203,26.855,99.609,24.902
1584599936.962,10.254,26.367,26.855,24.414,6.836
1584599936.966,-2.930,23.926,29.785,-42.969,31.738
1584599936.970,32.715,27.344,33.203,24.902,66.895
1584599936.974,50.781,28.809,36.621,104.004,47.852
1584599936.977,20.996,25.391,36.621,46.387,11.230
1584599936.981,0.000,23.926,30.273,-35.156,63.477
1584599936.985,27.832,26.855,30.273,-1.953,29.785
1584599936.989,52.734,32.715,33.203,86.914,-20.996
1584599936.993,31.738,29.785,29.785,71.777,13.184
1584599936.997,-1.953,19.531,26.855,-27.344,10.742
1584599937.001,10.742,20.020,28.809,-26.855,51.758
1584599937.005,53.223,27.832,32.227,79.590,30.273
1584599937.009,50.293,26.855,32.715,103.516,-26.367
1584599937.013,7.812,18.555,33.203,8.301,-4.883
1584599937.017,1.953,17.090,33.691,-34.668,7.812
1584599937.020,37.109,24.902,30.762,46.875,8.789
1584599937.024,44.434,28.809,28.809,94.727,30.762
1584599937.028,11.230,27.832,23.926,17.090,10.742
1584599937.032,-4.883,24.414,25.879,-54.199,-13.672
1584599937.036,27.344,24.414,32.227,9.277,8.789
1584599937.040,51.270,24.902,29.785,102.539,37.109
1584599937.044,24.902,21.973,25.879,60.059,65.918
1584599937.048,-3.906,20.996,26.367,-30.762,35.645
1584599937.052,15.625,25.391,27.344,-1.465,32.715
1584599937.056,42.969,30.762,26.855,96.191,75.684
1584599937.060,27.344,27.344,28.320,85.938,27.832
1584599937.063,-8.301,24.902,27.344,-18.066,-13.672
1584599937.067,1.465,27.832,25.879,-33.203,23.438
1584599937.071,39.551,31.250,29.297,66.895,80.566
1584599937.075,39.062,31.250,27.832,89.844,51.758
1584599937.079,6.348,29.297,24.902,-1.953,37.598
1584599937.083,0.488,28.809,25.391,-40.039,21.484
1584599937.087,36.621,33.203,25.391,40.039,26.367
1584599937.091,50.293,35.645,27.344,104.492,53.223
1584599937.095,21.484,32.715,26.855,37.598,30.273
1584599937.099,5.371,28.320,26.367,-25.391,67.383
1584599937.102,30.762,29.785,27.832,24.414,90.332
1584599937.106,53.711,34.180,27.832,90.332,78.125
1584599937.110,29.785,31.738,28.320,57.617,13.184
1584599937.114,-2.930,24.902,25.879,-37.109,-3.418
1584599937.118,15.137,27.832,25.879,-21.484,28.320
1584599937.122,46.387,35.645,29.785,69.336,27.344
1584599937.126,36.133,34.668,32.715,74.707,32.227
1584599937.130,0.000,26.855,31.250,-11.230,-12.207
1584599937.134,3.418,28.809,28.320,-34.668,14.648
1584599937.138,37.598,38.086,31.738,58.594,86.914
1584599937.142,40.527,37.109,32.715,98.145,89.355
1584599937.145,12.207,28.809,30.762,12.695,55.664
1584599937.149,2.441,30.762,28.320,-44.434,-28.809
1584599937.153,35.156,37.598,30.273,30.273,-29.297
1584599937.157,52.734,35.645,31.738,101.562,29.785
1584599937.161,22.461,28.809,28.320,40.039,48.340
1584599937.165,-0.488,26.367,26.855,-48.340,41.016
1584599937.169,27.832,30.273,29.785,-3.418,18.066
1584599937.173,55.664,33.203,30.762,91.797,36.133
1584599937.177,32.715,26.855,27.832,65.918,15.625
1584599937.181,1.953,22.949,28.809,-25.879,-4.395
1584599937.185,23.926,28.809,29.785,-17.090,41.992
1584599937.188,52.246,32.715,29.785,83.008,17.090
1584599937.192,44.434,28.320,28.809,92.773,27.344
1584599937.196,10.742,23.926,24.414,-3.906,60.547
1584599937.200,9.277,24.902,24.902,-36.621,34.180
1584599937.204,43.945,31.250,28.320,53.223,41.504
1584599937.208,46.875,30.273,24.902,101.074,47.363
1584599937.212,10.254,23.438,23.926,16.602,51.270
1584599937.216,0.488,27.344,25.391,-44.922,-12.695
1584599937.220,30.273,30.273,29.785,28.809,13.672
1584599937.224,47.363,30.273,31.738,105.469,80.566
1584599937.227,21.484,26.855,29.785,48.828,9.277
1584599937.231,-5.859,20.996,29.785,-38.574,-32.715
1584599937.235,22.949,21.484,32.715,2.930,-13.672
1584599937.239,56.152,26.367,34.668,103.027,7.324
1584599937.243,36.133,23.926,31.250,79.590,29.785
1584599937.247,-9.277,19.531,25.391,-33.203,14.160
1584599937.251,-6.348,23.438,24.414,-44.434,-0.977
1584599937.255,34.180,27.832,26.855,62.012,32.227
1584599937.259,34.668,28.320,26.367,88.867,34.180
1584599937.263,2.930,23.926,28.809,-0.488,-29.297
1584599937.267,4.883,21.973,29.785,-35.156,26.855
1584599937.270,40.527,28.809,27.344,45.410,74.707
1584599937.274,46.387,33.203,27.344,94.238,-4.395
1584599937.278,11.719,26.855,25.879,20.996,40.527
1584599937.282,-5.859,25.391,21.973,-41.504,67.871
1584599937.286,21.484,29.785,23.926,15.625,0.977
1584599937.290,39.062,30.762,26.367,85.938,-11.719
1584599937.294,13.672,26.855,25.391,42.969,6.836
1584599937.298,-11.719,22.461,27.344,-37.109,19.531
1584599937.302,12.695,24.414,31.250,-9.277,20.020
1584599937.306,46.875,29.297,35.645,85.449,16.113
1584599937.310,34.668,28.809,33.691,80.078,30.273
1584599937.313,-1.465,24.414,28.809,-16.602,13.672
1584599937.317,0.000,25.391,30.273,-36.133,28.809
1584599937.321,39.551,27.832,33.691,57.129,32.227
1584599937.325,45.898,29.297,34.180,93.750,-9.277
1584599937.329,11.719,29.297,30.273,2.930,41.992
1584599937.333,2.930,27.344,28.809,-46.875,72.266
1584599937.337,39.551,31.250,31.250,40.039,46.387
1584599937.341,55.664,30.273,29.785,101.562,41.992
1584599937.345,21.973,24.414,27.344,30.762,15.137
1584599937.349,0.488,23.926,27.344,-41.992,7.324
1584599937.352,30.273,30.273,30.762,15.137,12.695
1584599937.356,53.711,35.156,32.227,101.074,24.902
1584599937.360,27.832,27.832,26.855,52.246,20.996
1584599937.364,1.465,20.020,21.973,-47.363,-26.855
1584599937.368,17.578,23.438,21.973,-23.438,7.324
1584599937.372,40.527,28.320,25.879,77.148,50.293
1584599937.376,32.227,28.320,26.367,75.684,53.711
1584599937.380,0.000,24.414,25.879,-22.461,37.109
1584599937.384,4.883,27.832,27.832,-40.039,16.113
1584599937.388,38.574,34.180,28.809,51.270,22.949
1584599937.392,38.086,32.715,26.855,86.426,49.316
1584599937.395,3.906,28.320,24.902,3.418,71.289
1584599937.399,-7.812,25.879,23.926,-51.758,33.203
1584599937.403,24.414,27.344,27.344,23.926,8.789
1584599937.407,40.527,26.367,30.762,89.355,55.176
1584599937.411,9.766,25.879,27.832,30.762,109.863
1584599937.415,-12.207,24.902,25.879,-46.875,33.691
1584599937.419,16.113,26.855,27.832,-1.465,-37.598
1584599937.423,41.016,29.297,29.297,89.355,-1.953
1584599937.427,22.461,28.320,26.367,61.035,1.953
1584599937.431,-5.371,25.391,21.973,-32.715,0.488
1584599937.435,8.301,24.414,25.391,-20.996,48.828
1584599937.438,40.039,25.391,29.297,79.102,61.523
1584599937.442,30.762,22.949,27.344,83.984,53.223
1584599937.446,-5.859,20.996,22.949,-11.230,49.805
1584599937.450,-6.348,22.949,22.461,-49.316,3.906
1584599937.454,27.344,27.344,26.855,33.203,63.965
1584599937.458,31.250,27.344,28.809,83.496,74.219
1584599937.462,2.441,23.926,27.344,10.254,17.578
1584599937.466,-1.465,23.926,32.227,-40.039,79.102
1584599937.470,29.785,25.391,33.203,30.273,104.004
1584599937.474,44.922,24.414,32.227,100.586,69.336
1584599937.477,16.602,24.414,27.832,46.875,40.527
1584599937.481,-8.301,24.902,23.926,-40.527,28.809
1584599937.485,16.113,26.855,27.832,-5.371,-21.973
1584599937.489,38.574,26.367,29.297,85.938,-29.297
1584599937.493,20.996,20.996,28.320,64.453,-0.488
1584599937.497,-6.348,20.508,27.344,-31.738,-17.090
1584599937.501,7.324,24.902,28.809,-31.250,3.906
1584599937.505,44.922,30.273,32.227,77.637,9.277
1584599937.509,42.480,30.273,32.715,97.168,7.812
1584599937.513,4.395,25.879,30.273,0.488,44.922
1584599937.517,3.418,27.344,30.273,-34.668,34.180
1584599937.520,36.621,33.203,30.273,51.270,-8.301
1584599937.524,40.039,34.668,32.227,100.098,1.465
1584599937.528,12.695,29.297,33.691,25.879,10.254
1584599937.532,0.488,26.367,30.762,-40.527,51.270
1584599937.536,25.879,28.809,33.203,20.508,86.426
1584599937.540,50.781,30.273,34.668,99.609,97.168
1584599937.544,26.367,29.297,32.227,50.781,67.383
1584599937.548,-6.348,26.367,29.785,-36.621,29.785
1584599937.552,19.043,29.785,33.691,-3.418,36.133
1584599937.556,52.734,31.250,36.621,89.355,-4.395
1584599937.560,36.133,29.297,30.273,71.289,-6.836
1584599937.563,-4.395,22.461,28.320,-22.949,28.320
1584599937.567,0.488,19.043,31.738,-30.762,20.996
1584599937.571,36.621,25.391,31.738,63.965,13.672
1584599937.575,34.668,24.902,31.738,90.820,0.977
1584599937.579,2.930,21.973,34.180,0.977,21.973
1584599937.583,-1.465,23.926,29.785,-44.434,67.383
1584599937.587,31.738,26.367,26.855,35.156,17.578
1584599937.591,43.457,29.785,30.273,92.773,-16.113
1584599937.595,12.695,28.320,26.367,28.320,-9.766
1584599937.599,1.953,25.391,23.926,-40.527,-34.180
1584599937.602,29.785,25.879,27.832,13.672,-7.324
1584599937.606,41.992,25.391,32.227,94.727,-20.508
1584599937.610,16.113,20.996,29.785,58.594,-2.441
1584599937.614,-12.695,17.578,28.320,-32.715,44.434
1584599937.618,7.812,21.973,32.715,-20.020,37.598
1584599937.622,42.969,27.832,30.762,81.055,61.035
1584599937.626,33.203,28.809,26.367,84.473,68.359
1584599937.630,3.418,28.809,20.020,-11.719,66.406
1584599937.634,7.812,25.391,23.438,-34.668,79.102
1584599937.638,41.016,24.414,32.715,60.059,-5.859
1584599937.642,40.527,24.414,32.715,99.609,-17.090
1584599937.645,3.418,20.020,26.367,5.859,18.555
1584599937.649,-2.930,21.484,26.367,-49.805,-9.766
1584599937.653,36.133,29.297,31.250,37.598,0.000
1584599937.657,48.828,28.320,30.273,105.957,49.316
1584599937.661,22.461,21.973,30.762,46.875,55.176
1584599937.665,0.000,20.020,29.297,-33.203,36.621
1584599937.669,22.949,22.461,30.762,9.766,56.152
1584599937.673,53.711,28.809,34.180,100.586,50.293
1584599937.677,29.297,27.832,32.227,69.824,-21.973
1584599937.681,-4.395,24.414,29.785,-25.879,-13.672
1584599937.685,16.113,28.809,31.738,-15.625,36.621
1584599937.688,50.293,30.273,32.715,84.961,39.062
1584599937.692,39.062,27.344,33.691,85.449,45.410
1584599937.696,0.000,26.367,33.203,-11.230,8.789
1584599937.700,5.859,25.391,32.715,-35.645,-33.691
1584599937.704,41.504,26.855,33.691,54.199,-39.062
1584599937.708,45.898,28.809,31.738,97.168,4.395
1584599937.712,12.207,26.855,28.320,15.137,19.043
1584599937.716,-2.441,21.484,28.809,-41.992,-6.348
1584599937.720,34.180,21.484,32.715,31.738,75.195
1584599937.724,46.387,23.926,32.715,100.098,51.270
1584599937.727,15.137,21.973,29.297,41.504,19.043
1584599937.731,-3.906,21.484,29.785,-35.645,85.449
1584599937.735,17.578,24.414,30.762,1.953,114.258
1584599937.739,38.574,29.297,30.273,83.008,32.715
1584599937.743,26.367,25.391,30.273,65.430,-8.301
1584599937.747,-1.465,21.973,29.297,-20.508,32.227
1584599937.751,8.301,24.902,30.273,-26.855,55.664
1584599937.755,42.480,28.809,31.738,69.824,108.398
1584599937.759,37.598,24.414,30.762,89.844,150.879
1584599937.763,-1.953,15.625,27.344,-10.742,90.332
1584599937.767,-2.930,17.578,27.832,-45.410,0.000
1584599937.770,37.109,25.391,34.180,42.969,16.113
1584599937.774,40.039,26.855,33.203,87.402,17.090
1584599937.778,5.371,21.973,26.855,12.207,39.062
1584599937.782,-3.418,23.438,25.391,-55.176,20.996
1584599937.786,25.879,30.273,28.809,13.184,4.395
1584599937.790,47.363,30.762,31.738,98.145,60.547
1584599937.794,33.203,28.809,30.762,54.199,34.180
1584599937.798,13.184,25.879,30.273,-26.855,-3.906
1584599937.802,30.762,27.832,28.320,2.930,-16.602
1584599937.806,56.641,33.691,27.832,98.633,13.672
1584599937.810,37.109,32.227,23.926,76.172,53.711
1584599937.813,0.977,27.832,24.414,-22.461,63.477
1584599937.817,10.742,29.785,26.367,-28.809,68.848
1584599937.821,50.781,31.738,27.832,69.824,37.598
1584599937.825,48.828,28.809,28.320,93.262,2.441
1584599937.829,11.719,26.367,26.855,2.441,18.555
1584599937.833,8.789,25.879,28.809,-33.203,27.832
1584599937.837,42.480,29.297,28.809,48.340,6.348
1584599937.841,52.734,32.715,29.297,109.375,32.227
1584599937.845,23.926,31.250,26.855,41.016,51.758
1584599937.849,5.371,26.367,22.949,-34.180,35.156
1584599937.852,35.645,26.855,27.344,20.996,3.906
1584599937.856,58.594,30.762,32.715,102.539,15.137
1584599937.860,34.668,28.320,31.250,63.965,81.543
1584599937.864,6.836,24.902,28.809,-23.438,66.895
1584599937.868,23.438,25.391,27.344,-9.766,47.363
1584599937.872,51.758,28.320,26.367,82.031,13.672
1584599937.876,40.039,28.809,27.832,83.008,-48.828
1584599937.880,6.836,24.902,26.855,-8.789,29.785
1584599937.884,14.160,23.438,26.855,-26.367,124.023
1584599937.888,54.199,26.855,31.250,65.918,91.797
1584599937.892,53.711,26.367,28.809,99.121,12.695
1584599937.895,16.602,20.020,25.879,15.137,6.836
1584599937.899,14.160,21.484,28.809,-31.250,6.836
1584599937.903,46.875,29.785,29.785,44.434,-20.996
1584599937.907,55.176,30.273,31.738,109.863,16.113
1584599937.911,25.391,23.926,28.809,46.875,-9.277
1584599937.915,4.883,20.508,27.344,-36.621,-20.020
1584599937.919,28.320,25.879,28.809,8.301,14.648
1584599937.923,47.363,29.297,31.738,101.562,-36.133
1584599937.927,24.902,23.926,29.785,63.965,-27.344
1584599937.931,-1.953,19.531,28.809,-32.715,-21.484
1584599937.935,13.184,25.391,32.227,-12.207,23.438
1584599937.938,44.434,28.809,32.715,90.820,17.578
1584599937.942,36.621,27.344,30.273,95.703,-21.484
1584599937.946,3.906,26.855,27.344,-3.418,11.230
1584599937.950,6.348,28.320,28.320,-29.297,9.277
1584599937.954,42.969,32.227,33.203,62.012,16.113
1584599937.958,44.434,36.133,34.668,103.516,34.180
1584599937.962,7.812,34.180,31.738,17.578,16.602
1584599937.966,0.977,37.598,29.785,-45.410,45.410
1584599937.970,35.156,38.574,30.762,29.297,-6.348
1584599937.974,46.875,35.156,33.691,104.492,-5.859
1584599937.977,20.508,33.203,31.738,52.734,64.941
1584599937.981,1.465,28.809,30.762,-33.691,30.273
1584599937.985,25.391,28.809,32.227,0.977,-14.648
1584599937.989,48.828,34.180,31.250,89.844,10.254
1584599937.993,34.180,32.715,29.297,67.383,52.246
1584599937.997,11.719,29.785,27.832,-19.043,3.418
1584599938.001,21.484,30.273,28.809,-15.625,50.293
1584599938.005,41.992,29.297,33.203,71.289,94.727
1584599938.009,28.320,27.344,34.668,77.637,54.199
1584599938.013,-5.859,26.855,33.203,-12.207,61.035
1584599938.017,-2.930,27.344,34.668,-38.574,69.824
1584599938.020,38.086,34.668,38.086,54.199,63.477
1584599938.024,50.781,39.551,36.133,103.027,57.129
1584599938.028,18.555,30.273,35.156,24.414,3.906
1584599938.032,0.977,26.855,33.691,-40.527,-59.570
1584599938.036,31.738,33.691,37.598,24.902,-5.371
1584599938.040,52.246,34.668,39.062,102.051,60.547
1584599938.044,26.855,30.762,31.250,52.734,55.664
1584599938.048,2.930,27.832,26.855,-32.715,26.855
1584599938.052,23.926,30.273,26.367,-4.883,0.977
1584599938.056,52.734,35.156,27.344,85.449,9.277
1584599938.060,37.598,36.133,23.438,67.871,10.742
1584599938.063,0.977,32.227,23.438,-30.762,56.641
1584599938.067,13.672,36.133,25.879,-40.527,36.621
1584599938.071,45.898,41.504,27.344,61.523,6.348
1584599938.075,36.621,34.180,26.855,90.820,27.344
1584599938.079,3.418,28.809,23.926,-4.883,24.902
1584599938.083,-0.977,31.738,25.879,-46.387,43.945
1584599938.087,33.203,37.598,29.785,42.969,9.277
1584599938.091,43.457,35.645,31.250,101.562,34.180
1584599938.095,13.184,32.227,28.809,31.250,47.363
1584599938.099,-4.395,32.715,25.879,-40.527,11.719
1584599938.102,22.949,32.227,31.738,15.625,28.320
1584599938.106,44.922,32.227,36.133,102.051,18.555
1584599938.110,20.996,30.273,28.809,53.711,-19.043
1584599938.114,-6.348,31.250,24.902,-41.504,45.410
1584599938.118,16.602,37.598,30.762,-11.719,76.660
1584599938.122,48.828,37.598,32.227,86.426,49.805
1584599938.126,31.738,32.227,28.809,81.055,84.473
1584599938.130,-5.371,27.344,29.297,-13.184,46.387
1584599938.134,2.930,27.344,31.250,-30.273,-32.227
1584599938.138,37.598,32.715,33.203,60.547,27.344
1584599938.142,37.109,32.227,32.227,93.750,48.340
1584599938.145,1.953,29.297,28.320,2.441,-5.371
1584599938.149,-9.277,31.250,28.320,-50.293,12.695
1584599938.153,26.855,32.227,31.250,25.879,0.977
1584599938.157,43.457,34.668,34.180,87.891,5.859
1584599938.161,9.766,33.203,34.180,28.320,72.266
1584599938.165,-11.719,30.762,28.809,-46.387,69.336
1584599938.169,20.508,32.715,30.762,1.465,87.402
1584599938.173,46.387,33.691,36.133,90.332,41.504
1584599938.177,25.391,31.738,31.738,60.547,21.484
1584599938.181,-7.324,25.391,29.785,-36.133,38.574
1584599938.185,9.766,24.902,30.762,-23.926,5.371
1584599938.188,44.922,25.391,32.227,82.520,3.418
1584599938.192,40.039,24.414,37.598,96.191,8.789
1584599938.196,-1.465,24.902,33.203,-6.348,-0.488
1584599938.200,-11.230,23.926,26.367,-51.270,20.508
1584599938.204,27.832,28.809,27.832,38.086,21.484
1584599938.208,34.180,32.227,27.832,91.797,4.395
1584599938.212,-3.906,25.879,24.414,8.789,32.227
1584599938.216,-14.648,22.949,24.414,-53.711,38.086
1584599938.220,21.484,23.926,28.809,21.484,29.785
1584599938.224,38.086,22.461,30.762,91.797,19.043
1584599938.227,7.812,18.555,28.809,32.715,45.410
1584599938.231,-9.277,18.555,25.391,-45.898,26.855
1584599938.235,20.020,23.438,27.832,-4.395,0.000
1584599938.239,45.410,25.879,33.203,90.820,3.906
1584599938.243,25.391,23.438,34.668,68.359,20.020
1584599938.247,-8.301,22.949,33.203,-30.762,28.809
1584599938.251,4.883,26.367,31.738,-28.320,62.988
1584599938.255,39.062,26.367,33.691,68.848,6.836
1584599938.259,35.156,21.484,31.738,85.449,-48.340
1584599938.263,1.465,19.043,26.367,-12.207,-36.133
1584599938.267,-0.488,22.461,26.367,-44.922,-35.645
1584599938.270,34.180,24.414,26.855,48.828,-0.488
1584599938.274,41.992,23.438,30.762,98.145,21.973
1584599938.278,8.301,21.973,31.250,15.137,49.805
1584599938.282,-8.301,21.484,28.320,-50.781,56.641
1584599938.286,26.367,25.391,34.180,19.531,40.527
1584599938.290,47.363,27.832,36.133,91.309,20.508
1584599938.294,16.113,24.414,33.203,37.598,41.992
1584599938.298,-11.230,20.508,30.273,-42.969,24.414
1584599938.302,13.672,22.949,31.738,-8.301,-0.977
1584599938.306,44.922,26.367,34.180,87.891,-1.465
1584599938.310,26.855,23.926,31.250,72.266,44.922
1584599938.313,-5.859,22.949,26.367,-27.344,18.066
1584599938.317,4.883,23.438,26.367,-35.156,6.348
1584599938.321,37.109,27.344,28.809,63.965,43.457
1584599938.325,34.668,29.785,26.855,91.309,66.406
1584599938.329,0.977,21.973,22.949,-1.465,36.621
1584599938.333,-4.395,21.484,23.926,-44.434,-11.719
1584599938.337,33.691,30.762,26.367,38.086,28.320
1584599938.341,46.387,32.227,27.832,94.238,68.359
1584599938.345,11.719,24.902,26.855,20.996,40.039
1584599938.349,-5.859,20.996,21.973,-49.805,63.965
1584599938.352,23.438,24.414,20.020,10.742,13.672
1584599938.356,39.551,28.320,22.461,89.355,27.344
1584599938.360,12.207,24.414,22.949,45.898,94.238
1584599938.364,-13.184,21.484,20.996,-44.434,43.945
1584599938.368,10.254,26.367,23.926,-18.555,24.414
1584599938.372,41.016,31.250,25.391,84.961,5.859
1584599938.376,27.832,30.762,25.879,78.613,7.324
1584599938.380,-8.301,27.344,23.926,-17.090,56.641
1584599938.384,2.441,23.438,24.902,-28.809,29.785
1584599938.388,41.016,25.879,29.785,63.477,-21.484
1584599938.392,40.527,27.344,26.855,97.656,-28.320
1584599938.395,6.348,20.996,25.391,9.766,3.418
1584599938.399,-1.465,20.020,25.391,-45.898,39.062
1584599938.403,33.203,26.855,24.902,35.645,48.340
1584599938.407,40.039,29.785,25.879,103.027,42.969
1584599938.411,9.766,26.855,26.367,35.645,41.016
1584599938.415,-6.348,23.926,27.344,-40.039,62.988
1584599938.419,23.438,29.297,27.832,10.254,83.008
1584599938.423,49.805,32.227,30.273,98.145,9.766
1584599938.427,26.855,26.855,31.250,63.477,-9.277
1584599938.431,-5.371,24.902,29.785,-29.785,45.898
1584599938.435,10.742,29.785,31.738,-15.625,59.570
1584599938.438,46.875,32.227,32.715,81.055,42.969
1584599938.442,39.551,32.715,31.738,82.031,49.316
1584599938.446,4.395,27.344,29.297,-11.719,34.668
1584599938.450,6.836,24.902,32.227,-28.809,10.742
1584599938.454,39.062,29.297,36.133,65.430,41.016
1584599938.458,41.016,29.297,32.227,104.004,70.312
1584599938.462,12.695,26.367,29.297,23.438,44.922
1584599938.466,4.395,26.367,30.273,-34.668,-5.859
1584599938.470,35.645,34.668,33.203,32.227,0.000
1584599938.474,53.223,35.645,33.203,102.539,33.203
1584599938.477,21.973,26.855,33.691,45.410,20.996
1584599938.481,-5.859,22.949,32.227,-34.668,48.340
1584599938.485,24.414,25.391,34.668,7.812,66.895
1584599938.489,54.199,25.391,41.016,96.680,19.531
1584599938.493,34.180,24.902,37.598,72.266,36.621
1584599938.497,-3.906,25.391,29.785,-31.250,37.109
1584599938.501,3.418,28.809,29.297,-29.785,48.828
1584599938.505,38.574,32.715,33.691,74.707,35.645
1584599938.509,29.297,29.785,33.691,87.891,27.344
1584599938.513,-2.441,25.879,29.297,-5.859,38.086
1584599938.517,0.488,29.785,31.738,-41.504,27.832
1584599938.520,38.086,36.621,33.691,47.363,50.293
1584599938.524,42.969,35.156,31.250,92.773,74.219
1584599938.528,2.930,24.414,33.203,8.789,70.312
1584599938.532,-12.695,20.996,33.203,-53.711,11.230
1584599938.536,23.438,29.297,35.156,17.090,-7.812
1584599938.540,41.992,32.715,39.551,95.215,2.930
1584599938.544,13.184,28.809,35.156,42.480,7.812
1584599938.548,-4.883,29.785,29.297,-41.016,60.547
1584599938.552,19.531,36.133,27.344,-5.371,56.152
1584599938.556,49.316,34.180,30.273,89.355,40.527
1584599938.560,34.668,27.344,29.297,73.730,20.996
1584599938.563,2.930,25.879,26.367,-23.438,-9.277
1584599938.567,14.160,29.297,28.320,-24.902,89.355
1584599938.571,47.363,32.715,30.762,77.637,112.305
1584599938.575,39.551,29.785,30.762,91.309,13.672
1584599938.579,0.000,24.902,28.320,-7.812,17.090
1584599938.583,-2.930,26.367,26.855,-45.898,25.391
1584599938.587,34.180,32.227,30.273,42.480,-33.691
1584599938.591,44.922,33.691,30.273,101.074,1.465
1584599938.595,10.742,27.344,24.414,26.855,13.672
1584599938.599,-0.488,26.367,27.344,-41.504,10.254
1584599938.602,34.668,32.227,30.273,22.949,11.719
1584599938.606,53.223,34.180,29.785,102.539,-8.789
1584599938.610,29.297,29.297,30.273,59.082,30.762
1584599938.614,6.836,26.367,27.832,-32.715,20.996
1584599938.618,26.367,28.809,28.809,-9.277,11.230
1584599938.622,49.805,31.738,32.227,85.449,2.930
1584599938.626,33.691,32.227,33.203,73.242,-13.672
1584599938.630,-2.441,26.367,29.297,-20.996,24.414
1584599938.634,7.324,25.391,27.344,-35.156,22.461
1584599938.638,45.898,30.762,29.785,61.035,30.273
1584599938.642,38.574,31.738,28.320,96.680,46.875
1584599938.645,2.930,25.391,26.855,8.301,75.684
1584599938.649,0.488,24.902,29.785,-42.480,63.477
1584599938.653,37.598,34.180,31.738,37.109,25.879
1584599938.657,45.410,31.738,30.762,96.191,-0.977
1584599938.661,10.254,24.902,28.320,26.855,-9.277
1584599938.665,-9.277,25.391,27.344,-50.293,7.812
1584599938.669,17.578,28.320,29.297,-0.977,-9.766
1584599938.673,36.621,32.715,27.832,82.520,41.016
1584599938.677,16.113,32.227,26.367,48.828,2.930
1584599938.681,-1.953,32.715,28.320,-36.133,-57.617
1584599938.685,17.090,36.621,29.297,-18.066,2.930
1584599938.688,42.969,38.574,30.762,81.055,36.133
1584599938.692,30.762,32.715,29.785,81.543,51.758
1584599938.696,-2.441,24.902,27.832,-17.090,-20.020
1584599938.700,5.371,26.855,28.809,-33.203,-7.812
1584599938.704,45.898,30.762,28.809,70.801,65.918
1584599938.708,47.852,26.855,33.691,114.746,16.602
1584599938.712,11.230,24.414,31.738,21.973,5.859
1584599938.716,-6.348,30.273,23.926,-48.340,18.555
1584599938.720,23.438,36.133,25.879,24.902,8.301
1584599938.724,40.527,35.645,25.879,91.797,15.137
1584599938.727,14.160,29.297,21.973,27.832,8.789
1584599938.731,-5.371,26.855,20.020,-50.293,33.691
1584599938.735,17.090,28.320,23.926,-5.859,62.012
1584599938.739,41.992,28.809,27.344,85.938,48.340
1584599938.743,23.438,29.297,23.926,61.035,38.574
1584599938.747,-6.836,25.391,22.461,-33.203,41.016
1584599938.751,8.301,24.414,24.902,-29.785,8.789
1584599938.755,45.898,32.227,28.320,70.312,-14.160
1584599938.759,41.992,36.133,27.344,85.938,30.273
1584599938.763,5.371,32.227,24.414,-6.836,72.754
1584599938.767,7.324,30.273,23.926,-36.621,45.410
1584599938.770,44.434,32.715,23.926,46.387,48.340
1584599938.774,51.270,34.180,22.949,87.402,53.711
1584599938.778,19.531,30.273,22.949,17.090,-3.418
1584599938.782,7.324,28.809,21.484,-35.156,30.273
1584599938.786,36.621,32.227,22.461,31.250,65.430
1584599938.790,56.152,33.691,24.902,103.027,62.500
1584599938.794,28.320,34.668,25.391,45.898,24.414
1584599938.798,0.000,31.738,22.949,-40.527,17.578
1584599938.802,20.508,30.762,24.414,-5.859,30.273
1584599938.806,49.316,33.691,30.273,88.379,0.488
1584599938.810,36.133,32.227,31.250,72.266,41.016
1584599938.813,3.418,26.367,26.367,-20.996,30.273
1584599938.817,14.648,27.344,26.367,-20.508,6.348
1584599938.821,48.340,32.715,29.785,76.660,67.383
1584599938.825,40.527,31.250,29.297,97.168,24.414
1584599938.829,2.930,25.391,28.320,5.859,-16.113
1584599938.833,-0.977,22.949,29.297,-32.227,45.898
1584599938.837,34.180,26.367,31.250,55.176,57.617
1584599938.841,41.992,29.297,31.250,107.422,55.664
1584599938.845,13.672,29.785,26.855,33.691,41.016
1584599938.849,3.418,27.344,27.344,-34.668,38.086
1584599938.852,32.715,26.855,31.250,23.926,33.691
1584599938.856,49.316,27.832,31.738,105.957,-43.457
1584599938.860,21.484,23.926,29.785,52.734,-91.309
1584599938.864,-2.930,24.414,27.832,-40.527,-46.875
1584599938.868,18.066,29.297,27.344,-13.672,9.277
1584599938.872,47.852,31.250,28.320,84.473,-43.945
1584599938.876,30.762,29.297,28.320,77.637,-48.828
1584599938.880,-4.883,26.855,28.809,-20.508,-41.992
1584599938.884,8.789,31.250,27.344,-27.832,0.000
1584599938.888,43.457,31.738,29.297,64.453,14.648
1584599938.892,40.527,29.785,30.762,86.426,-9.766
1584599938.895,5.371,28.320,28.320,1.953,57.129
1584599938.899,-7.812,29.297,27.344,-46.387,36.133
1584599938.903,24.414,29.785,29.297,32.715,0.488
1584599938.907,39.551,27.832,33.691,92.773,13.672
1584599938.911,8.789,26.367,31.250,22.461,53.223
1584599938.915,-8.301,23.438,27.344,-45.410,29.785
1584599938.919,23.926,27.344,27.832,11.719,22.461
1584599938.923,49.316,30.762,28.320,92.773,59.082
1584599938.927,25.879,29.297,26.855,56.641,74.707
1584599938.931,-4.395,25.879,25.879,-32.715,37.109
1584599938.935,14.160,27.832,28.320,-11.719,9.766
1584599938.938,48.828,34.668,28.809,88.379,35.156
1584599938.942,33.691,31.250,28.320,85.449,36.133
1584599938.946,-4.883,22.949,31.738,-13.184,55.664
1584599938.950,2.441,23.926,31.738,-36.621,75.195
1584599938.954,40.039,27.832,32.227,61.035,57.129
1584599938.958,42.480,29.785,31.738,102.539,0.977
1584599938.962,9.766,28.320,29.297,16.113,-43.945
1584599938.966,3.418,26.855,28.809,-33.203,3.418
1584599938.970,36.621,29.297,30.273,43.457,61.035
1584599938.974,59.570,33.691,32.227,114.258,24.414
1584599938.977,27.344,29.785,31.250,52.246,53.711
1584599938.981,-6.348,23.926,32.227,-31.250,67.383
1584599938.985,13.184,28.320,33.691,7.324,34.668
1584599938.989,37.598,30.762,30.762,92.285,58.105
1584599938.993,23.926,25.879,26.855,67.383,58.105
1584599938.997,-2.930,20.020,26.367,-32.715,30.273
1584599939.001,11.230,25.391,31.250,-20.508,38.574
1584599939.005,46.875,31.738,31.250,87.402,54.199
1584599939.009,42.969,29.785,25.391,88.379,21.484
1584599939.013,2.930,23.926,23.926,-6.348,77.148
1584599939.017,3.418,23.438,25.391,-34.668,107.910
1584599939.020,40.039,26.367,27.344,52.246,44.922
1584599939.024,42.969,24.902,27.832,95.215,2.930
1584599939.028,6.348,22.949,26.367,10.254,12.207
1584599939.032,-4.883,23.438,25.879,-52.734,21.973
1584599939.036,30.762,29.297,28.320,21.484,39.551
1584599939.040,46.875,32.715,28.320,92.773,-25.391
1584599939.044,15.625,28.809,28.320,28.320,-5.859
1584599939.048,-7.324,25.391,25.391,-48.340,60.547
1584599939.052,14.160,26.855,24.902,-6.348,6.836
1584599939.056,42.969,32.227,31.250,85.938,21.973
1584599939.060,29.785,27.344,28.320,67.871,4.883
1584599939.063,-5.371,22.461,23.438,-25.391,17.578
1584599939.067,8.301,26.855,24.414,-26.855,22.949
1584599939.071,47.363,31.250,25.879,68.848,31.250
1584599939.075,41.016,29.785,26.367,86.914,55.176
1584599939.079,6.348,24.902,22.461,-6.348,26.367
1584599939.083,8.301,26.367,19.531,-41.016,9.766
1584599939.087,41.504,34.668,20.996,40.039,-2.930
1584599939.091,49.316,36.621,24.414,92.285,-5.371
1584599939.095,23.438,33.691,25.879,26.855,11.719
1584599939.099,7.812,31.738,24.902,-39.551,11.719
1584599939.102,32.227,33.203,29.785,22.949,6.348
1584599939.106,44.922,36.621,32.715,102.539,40.527
1584599939.110,17.090,33.203,29.785,58.594,46.387
1584599939.114,-10.254,28.809,29.297,-31.738,19.043
1584599939.118,10.742,27.832,30.762,-7.812,15.625
1584599939.122,37.109,27.832,29.785,87.402,32.715
1584599939.126,21.973,27.832,29.297,77.148,45.410
1584599939.130,-6.348,25.391,29.297,-19.531,53.223
1584599939.134,2.441,27.832,30.273,-31.250,20.020
1584599939.138,40.039,34.180,33.203,69.336,24.902
1584599939.142,42.480,32.715,32.227,100.098,104.492
1584599939.145,5.859,26.367,27.832,6.836,48.828
1584599939.149,1.953,28.809,27.832,-38.574,17.578
1584599939.153,41.992,36.621,30.762,50.781,47.363
1584599939.157,55.664,36.133,30.762,115.723,12.207
1584599939.161,21.973,30.762,28.320,43.457,5.859
1584599939.165,0.488,26.855,26.855,-31.738,10.742
1584599939.169,29.785,30.273,27.832,18.555,23.438
1584599939.173,46.387,29.297,29.297,95.703,14.160
1584599939.177,21.973,26.367,26.855,60.059,43.457
1584599939.181,-2.930,27.832,28.809,-23.926,61.035
1584599939.185,19.531,30.273,33.203,-3.906,47.363
1584599939.188,52.246,32.715,32.227,93.750,50.781
1584599939.192,41.504,30.762,29.297,86.426,10.254
1584599939.196,2.930,27.344,27.832,-10.742,-2.930
1584599939.200,3.906,28.809,27.344,-35.156,28.320
1584599939.204,41.992,31.250,30.273,54.688,52.246
1584599939.208,40.039,28.809,30.762,91.309,26.367
1584599939.212,3.418,27.832,25.391,2.441,-5.859
1584599939.216,-2.441,26.855,24.414,-47.852,32.715
1584599939.220,30.762,30.762,27.344,30.762,45.410
1584599939.224,43.945,34.668,25.391,98.633,67.871
1584599939.227,13.184,31.738,24.414,37.598,45.410
1584599939.231,-4.883,27.344,23.926,-39.551,-25.879
1584599939.235,21.973,25.879,24.902,5.371,11.230
1584599939.239,44.434,28.320,26.855,91.797,32.227
1584599939.243,26.855,28.320,28.809,64.941,-5.859
1584599939.247,0.977,23.926,25.879,-22.949,4.883
1584599939.251,19.531,26.855,20.996,-10.254,-7.812
1584599939.255,44.434,28.320,27.344,83.496,34.180
1584599939.259,22.949,22.949,28.809,82.031,67.871
1584599939.263,-11.719,17.090,26.855,-17.090,37.598
1584599939.267,-3.906,20.996,27.344,-43.457,-23.438
1584599939.270,32.227,27.344,27.344,45.898,8.301
1584599939.274,33.203,25.879,28.809,94.238,34.668
1584599939.278,0.000,20.020,29.785,14.648,43.457
1584599939.282,-3.906,19.043,29.297,-56.641,27.344
1584599939.286,29.297,25.391,30.273,14.160,-3.906
1584599939.290,38.574,24.902,29.785,94.727,18.066
1584599939.294,7.324,19.531,24.902,33.691,5.859
1584599939.298,-15.625,16.113,21.484,-51.758,17.578
1584599939.302,13.184,22.461,23.438,-7.812,20.508
1584599939.306,38.086,27.344,23.926,85.449,40.039
1584599939.310,21.973,23.438,25.391,69.336,57.129
1584599939.313,-5.371,19.531,25.391,-27.344,21.484
1584599939.317,5.859,23.438,28.320,-24.414,46.875
1584599939.321,43.457,29.785,33.691,76.660,101.074
1584599939.325,37.598,25.879,30.273,86.914,102.051
1584599939.329,-0.488,22.461,25.879,-9.277,72.266
1584599939.333,-0.488,23.438,30.273,-39.062,38.086
1584599939.337,36.133,26.855,34.180,51.270,-6.348
1584599939.341,42.969,27.832,31.738,97.168,10.254
1584599939.345,5.859,22.949,25.879,13.672,28.320
1584599939.349,-8.301,21.484,24.902,-48.828,35.156
1584599939.352,21.484,23.438,29.297,14.648,77.637
1584599939.356,40.527,25.391,30.762,93.262,61.035
1584599939.360,18.555,23.926,28.809,46.875,30.762
1584599939.364,-7.812,21.973,26.855,-43.457,37.598
1584599939.368,16.602,22.949,28.809,-17.578,-18.555
1584599939.372,47.363,23.438,29.785,71.777,-51.270
1584599939.376,32.715,21.973,30.762,62.988,-12.207
1584599939.380,1.953,18.066,30.762,-22.461,39.062
1584599939.384,10.742,20.508,27.832,-27.344,26.367
1584599939.388,41.504,25.879,26.855,66.895,31.738
1584599939.392,37.109,23.926,28.320,90.820,66.406
1584599939.395,2.441,21.973,25.391,2.930,21.973
1584599939.399,-4.395,24.902,22.949,-42.969,-21.973
1584599939.403,26.855,26.367,25.391,32.227,-39.551
1584599939.407,36.133,25.391,28.320,90.820,-2.441
1584599939.411,7.324,21.973,28.809,21.973,55.176
1584599939.415,-8.789,19.043,27.344,-52.734,32.715
1584599939.419,22.461,27.832,28.809,-0.977,2.930
1584599939.423,47.852,31.738,29.785,89.355,41.504
1584599939.427,23.438,24.414,26.855,60.059,14.648
1584599939.431,-4.883,20.020,24.902,-30.762,-29.785
1584599939.435,14.648,27.832,26.855,-15.137,-34.180
1584599939.438,45.898,35.645,24.902,82.031,-8.301
1584599939.442,36.133,31.250,20.508,80.566,37.109
1584599939.446,3.418,24.902,21.973,-13.672,4.395
1584599939.450,12.695,27.344,22.949,-28.809,15.137
1584599939.454,47.363,32.715,26.367,67.871,29.297
1584599939.458,41.016,29.297,28.320,99.121,12.207
1584599939.462,6.348,24.902,24.414,5.859,19.531
1584599939.466,1.465,26.367,24.902,-41.016,-4.883
1584599939.470,33.203,29.785,26.855,41.016,2.441
1584599939.474,45.410,32.715,27.832,105.957,35.645
1584599939.477,10.254,24.902,26.855,38.574,104.004
1584599939.481,-12.207,18.555,26.367,-41.504,64.941
1584599939.485,17.090,22.461,28.320,10.742,-42.480
1584599939.489,43.457,27.832,33.203,102.051,9.277
1584599939.493,21.973,29.297,32.715,62.988,19.043
1584599939.497,-8.789,24.902,28.809,-30.762,6.348
1584599939.501,5.859,22.949,29.297,-18.555,63.477
1584599939.505,39.062,29.297,30.762,74.707,46.387
1584599939.509,32.227,27.832,30.762,82.031,14.648
1584599939.513,-8.789,21.484,28.320,-16.113,39.062
1584599939.517,-5.859,22.461,24.902,-40.039,63.965
1584599939.520,37.598,28.320,27.344,54.199,57.617
1584599939.524,41.504,30.762,27.832,92.773,17.578
1584599939.528,3.906,26.367,29.297,11.719,-61.035
1584599939.532,-4.395,25.879,29.785,-43.457,-50.293
1584599939.536,31.250,28.809,28.809,27.832,9.766
1584599939.540,45.410,30.273,29.297,94.238,-16.113
1584599939.544,16.113,28.320,25.391,34.668,0.977
1584599939.548,-10.254,25.391,20.508,-45.410,64.941
1584599939.552,11.230,24.414,22.461,-8.789,92.773
1584599939.556,35.645,26.367,24.414,78.125,67.383
1584599939.560,18.555,26.855,23.926,55.664,24.414
1584599939.563,-12.695,23.438,22.461,-36.621,19.043
1584599939.567,0.488,23.438,24.902,-36.621,-12.695
1584599939.571,33.203,28.809,30.762,63.965,-9.277
1584599939.575,26.855,27.344,26.367,80.078,19.531
1584599939.579,-5.371,23.438,19.531,-19.043,42.969
1584599939.583,-3.906,27.344,23.438,-52.734,21.484
1584599939.587,39.062,31.738,29.785,47.852,-2.930
1584599939.591,51.270,33.691,30.273,108.887,-21.973
1584599939.595,12.695,32.227,26.367,24.414,13.184
1584599939.599,-5.859,32.227,22.461,-47.852,29.297
1584599939.602,29.785,35.645,25.391,20.020,-34.180
1584599939.606,50.293,36.133,28.320,99.609,-0.488
1584599939.610,18.066,31.250,24.414,41.992,-13.184
1584599939.614,-6.348,28.809,25.879,-45.410,-19.043
1584599939.618,14.648,31.250,24.902,-8.301,46.875
1584599939.622,42.480,36.621,22.949,86.914,42.480
1584599939.626,30.762,35.156,25.879,78.613,-6.836
1584599939.630,0.000,31.250,26.855,-17.090,7.324
1584599939.634,14.648,32.227,25.879,-20.996,93.262
1584599939.638,52.246,35.645,26.367,76.660,70.801
1584599939.642,44.434,36.133,27.344,95.703,-1.953
1584599939.645,8.301,35.156,24.414,4.883,32.227
1584599939.649,5.859,37.109,22.461,-35.645,62.012
1584599939.653,39.551,37.109,22.461,40.039,42.969
1584599939.657,49.805,38.086,25.391,90.332,26.367
1584599939.661,15.625,37.109,25.879,25.391,32.227
1584599939.665,-0.488,35.645,23.438,-41.016,60.059
1584599939.669,31.738,40.039,26.367,15.137,4.395
1584599939.673,55.664,40.039,28.320,100.098,30.762
1584599939.677,29.785,34.668,26.367,57.129,43.945
1584599939.681,0.977,28.809,24.902,-33.691,28.809
1584599939.685,22.949,31.738,26.367,-9.766,79.590
1584599939.688,51.270,37.109,27.832,85.938,52.734
1584599939.692,33.203,36.133,27.832,78.125,52.246
1584599939.696,-3.906,33.691,28.320,-16.113,60.547
1584599939.700,1.465,31.738,27.344,-32.715,18.555
1584599939.704,41.504,35.645,31.738,59.570,27.832
1584599939.708,44.922,40.039,30.273,97.656,24.902
1584599939.712,7.324,35.156,27.832,10.254,10.742
1584599939.716,-0.977,32.715,30.273,-40.039,31.738
1584599939.720,30.273,39.062,31.250,39.551,-14.648
1584599939.724,41.016,39.551,31.738,104.980,31.738
1584599939.727,14.160,35.645,29.297,43.945,70.312
1584599939.731,-2.930,33.691,27.832,-31.738,42.480
1584599939.735,24.902,33.691,29.297,13.184,49.805
1584599939.739,50.781,33.691,29.785,94.238,-17.578
1584599939.743,30.273,31.250,29.785,57.617,-54.688
1584599939.747,-6.348,27.344,25.391,-40.039,0.977
1584599939.751,7.812,31.738,24.414,-28.320,53.223
1584599939.755,41.992,37.598,27.344,72.266,38.086
1584599939.759,31.738,35.645,28.809,83.984,40.039
1584599939.763,-1.953,29.785,28.809,-8.301,25.879
1584599939.767,1.953,29.297,32.227,-29.297,-6.348
1584599939.770,40.527,34.180,33.203,67.871,29.785
1584599939.774,47.852,36.133,29.785,106.445,60.547
1584599939.778,13.672,28.320,29.785,18.555,45.898
1584599939.782,4.883,23.926,30.762,-38.086,14.648
1584599939.786,38.574,29.785,30.273,37.109,40.527
1584599939.790,53.711,30.762,28.320,99.609,75.195
1584599939.794,28.809,27.832,27.344,41.016,41.016
1584599939.798,4.883,24.902,32.227,-34.668,43.945
1584599939.802,21.484,24.414,34.180,11.719,55.176
1584599939.806,44.922,27.832,31.738,104.492,39.551
1584599939.810,30.273,26.855,32.227,77.637,55.176
1584599939.813,-1.953,20.996,32.227,-14.648,40.039
1584599939.817,8.789,20.996,29.297,-10.254,41.016
1584599939.821,43.945,23.438,30.762,81.055,14.160
1584599939.825,36.133,21.973,32.715,88.379,9.766
1584599939.829,0.977,20.020,26.367,-5.371,27.832
1584599939.833,2.930,17.578,25.391,-37.109,-20.020
1584599939.837,37.598,19.531,31.738,46.875,-27.344
1584599939.841,43.945,23.438,34.668,97.656,0.000
1584599939.845,10.742,21.484,34.180,23.926,47.363
1584599939.849,-4.395,19.531,34.180,-44.922,83.008
1584599939.852,27.832,23.438,34.668,20.996,74.707
1584599939.856,51.270,29.785,33.203,104.492,55.664
1584599939.860,20.996,26.367,32.715,47.363,-24.414
1584599939.864,-8.301,23.926,30.273,-46.387,-32.227
1584599939.868,20.508,27.832,29.785,-14.160,60.059
1584599939.872,49.316,27.832,30.273,82.520,69.336
1584599939.876,29.785,22.461,32.227,67.871,20.996
1584599939.880,-3.906,18.555,31.250,-32.715,6.348
1584599939.884,5.371,22.949,27.832,-39.062,32.715
1584599939.888,40.039,26.367,31.250,56.152,20.508
1584599939.892,33.691,25.391,29.297,79.102,5.371
1584599939.895,-0.977,20.508,24.414,-13.672,-27.832
1584599939.899,-0.977,22.949,24.902,-53.711,3.906
1584599939.903,37.598,34.180,26.855,43.457,51.270
1584599939.907,45.898,32.715,26.367,102.539,32.227
1584599939.911,10.742,24.902,22.461,29.785,-1.953
1584599939.915,-4.395,25.879,21.973,-38.086,-9.277
1584599939.919,26.855,31.250,25.879,16.602,8.301
1584599939.923,46.387,33.203,25.391,99.121,20.996
1584599939.927,25.879,27.344,21.973,56.641,30.273
1584599939.931,0.488,25.391,19.531,-34.668,24.414
1584599939.935,20.996,32.715,23.926,-9.277,29.785
1584599939.938,51.270,33.203,28.320,87.402,58.105
1584599939.942,36.133,27.832,25.879,71.777,31.250
1584599939.946,-1.465,23.926,25.391,-23.438,31.738
1584599939.950,3.418,22.949,27.832,-28.809,39.062
1584599939.954,43.945,27.344,30.762,70.312,11.230
1584599939.958,46.387,25.879,32.715,104.492,37.109
1584599939.962,11.719,22.949,29.297,16.602,13.184
1584599939.966,3.418,24.902,26.855,-35.156,-51.758
1584599939.970,38.086,31.250,28.320,39.062,-54.199
1584599939.974,47.852,31.738,28.809,99.609,0.488
1584599939.977,15.137,24.414,25.879,33.691,19.043
1584599939.981,0.488,24.902,25.391,-39.062,-13.672
1584599939.985,34.668,27.344,26.367,11.719,25.391
1584599939.989,54.688,28.809,26.855,95.703,32.715
1584599939.993,27.344,26.855,29.297,64.453,13.672
1584599939.997,-5.371,22.461,29.297,-27.344,22.949
1584599940.001,10.742,23.926,28.809,-12.695,17.090
1584599940.005,44.434,28.809,28.809,85.449,68.848
1584599940.009,34.180,25.879,24.414,83.984,58.105
1584599940.013,-3.906,19.531,22.949,-18.066,-10.254
1584599940.017,0.000,22.461,26.367,-41.016,6.836
1584599940.020,39.062,30.762,27.832,54.199,11.230
1584599940.024,41.504,30.762,24.414,97.168,25.391
1584599940.028,6.836,21.973,23.926,13.184,45.410
1584599940.032,0.977,22.461,23.926,-45.898,49.805
1584599940.036,40.527,34.180,26.367,34.668,105.957
1584599940.040,57.617,37.109,28.320,108.887,90.820
1584599940.044,25.879,31.738,26.367,50.781,17.090
1584599940.048,4.883,28.320,26.367,-29.785,83.496
1584599940.052,32.227,31.738,27.832,11.719,125.488
1584599940.056,50.781,33.691,25.879,101.074,48.828
1584599940.060,32.227,28.320,25.391,68.848,20.996
1584599940.063,3.906,25.391,22.461,-30.762,9.277
1584599940.067,18.066,26.855,22.461,-21.973,-17.578
1584599940.071,52.734,32.227,25.879,78.613,4.395
1584599940.075,42.969,34.180,23.438,85.449,18.066
1584599940.079,7.324,31.250,22.949,-10.254,-15.137
1584599940.083,8.301,29.785,25.879,-37.598,33.203
1584599940.087,42.480,33.203,25.879,51.758,19.531
1584599940.091,43.457,32.715,25.879,90.332,-7.812
1584599940.095,13.672,28.809,23.926,16.602,43.457
1584599940.099,3.418,28.320,22.461,-41.016,32.715
1584599940.102,33.203,32.227,23.926,21.484,58.105
1584599940.106,53.711,33.691,23.926,93.750,51.270
1584599940.110,22.461,29.297,20.508,41.016,33.203
1584599940.114,-7.324,23.926,19.531,-41.992,32.227
1584599940.118,20.508,27.344,21.973,-8.789,-11.230
1584599940.122,46.387,31.250,23.438,78.613,-25.391
1584599940.126,25.879,29.297,24.902,64.941,69.336
1584599940.130,-2.930,25.879,25.391,-21.973,87.891
1584599940.134,9.277,26.855,26.367,-25.391,17.578
1584599940.138,41.504,32.227,29.297,70.801,13.672
1584599940.142,32.227,31.250,28.320,90.332,38.086
1584599940.145,-5.859,24.414,23.926,-6.348,7.812
1584599940.149,-7.324,22.461,24.414,-45.898,10.742
1584599940.153,23.926,24.902,28.809,37.109,8.301
1584599940.157,31.250,25.391,29.297,88.867,-4.395
1584599940.161,3.906,23.926,28.809,20.020,35.645
1584599940.165,-9.277,22.461,30.762,-52.734,15.625
1584599940.169,22.461,28.809,33.203,2.930,-10.254
1584599940.173,39.551,34.180,33.691,96.680,1.465
1584599940.177,14.648,27.832,31.250,56.152,-25.391
1584599940.181,-6.836,25.879,28.809,-35.645,-11.230
1584599940.185,11.719,28.809,31.250,-15.625,-4.395
1584599940.188,43.457,30.762,35.156,80.566,23.926
1584599940.192,35.156,30.273,32.715,77.637,40.527
1584599940.196,-1.953,28.320,30.762,-20.508,15.625
1584599940.200,2.930,31.250,32.227,-35.156,34.668
1584599940.204,39.062,35.645,33.691,57.129,47.363
1584599940.208,38.574,32.715,29.785,88.867,40.527
1584599940.212,1.465,22.949,27.344,-3.418,40.527
1584599940.216,-6.836,25.391,29.297,-49.805,38.086
1584599940.220,28.809,29.297,28.809,35.156,19.043
1584599940.224,40.527,27.832,28.320,96.680,31.738
1584599940.227,12.695,27.832,29.297,30.762,41.016
1584599940.231,-1.953,29.785,30.273,-40.039,20.996
1584599940.235,23.926,33.203,29.297,10.254,20.508
1584599940.239,45.898,32.227,27.344,96.191,65.918
1584599940.243,21.973,25.879,22.949,56.152,19.531
1584599940.247,-8.301,25.391,21.484,-38.574,-20.020
1584599940.251,11.230,31.250,22.949,-20.508,-25.391
1584599940.255,44.922,32.227,24.414,71.777,-57.617
1584599940.259,31.250,26.855,22.949,74.219,-36.133
1584599940.263,0.488,23.438,22.949,-16.113,-7.324
1584599940.267,6.836,25.879,21.973,-40.527,-6.836
1584599940.270,36.133,28.809,20.996,45.410,-5.859
1584599940.274,41.992,30.273,23.926,85.938,36.133
1584599940.278,11.719,27.832,22.461,5.859,0.000
1584599940.282,1.953,25.391,20.996,-49.805,-13.184
1584599940.286,34.668,28.320,24.902,28.809,60.059
1584599940.290,48.340,30.762,26.855,98.145,80.078
1584599940.294,20.508,29.297,24.902,36.133,31.250
1584599940.298,-0.977,26.367,26.367,-41.504,28.809
1584599940.302,28.320,26.855,31.250,1.953,33.691
1584599940.306,54.688,25.879,32.715,91.797,68.848
1584599940.310,32.227,19.531,29.297,67.383,85.938
1584599940.313,-5.371,16.602,24.414,-37.109,16.602
1584599940.317,1.465,18.555,27.832,-43.457,-9.277
1584599940.321,38.574,24.902,32.227,59.082,-3.906
1584599940.325,29.785,25.391,30.762,73.730,8.301
1584599940.329,-8.789,21.973,32.227,-16.113,21.973
1584599940.333,-6.348,26.367,35.156,-41.016,-7.324
1584599940.337,32.715,28.809,31.738,43.457,34.180
1584599940.341,37.109,30.273,31.250,91.309,41.016
1584599940.345,3.906,28.809,29.297,13.184,35.645
1584599940.349,-4.883,27.832,29.785,-47.363,78.125
1584599940.352,28.809,35.156,35.645,20.996,63.477
1584599940.356,47.852,36.133,37.109,99.121,58.594
1584599940.360,21.973,26.855,34.668,50.781,86.426
1584599940.364,-0.977,23.438,34.180,-37.598,50.293
1584599940.368,21.484,30.762,35.156,-7.324,26.855
1584599940.372,47.363,33.691,33.203,89.355,19.043
1584599940.376,32.227,30.762,33.203,75.684,32.227
1584599940.380,-3.906,28.809,30.762,-23.926,72.754
1584599940.384,7.324,30.273,30.762,-26.855,57.129
1584599940.388,44.434,33.691,34.180,74.219,15.625
1584599940.392,36.621,32.715,30.762,91.309,29.785
1584599940.395,4.395,26.367,29.297,1.465,65.430
1584599940.399,2.441,26.855,32.715,-33.203,72.266
1584599940.403,36.621,31.738,33.203,45.898,38.086
1584599940.407,43.945,35.156,33.691,92.773,-0.488
1584599940.411,12.695,36.133,33.203,24.414,1.953
1584599940.415,-0.977,34.180,28.320,-42.480,5.859
1584599940.419,29.297,35.156,29.297,12.695,26.855
1584599940.423,48.340,34.180,33.203,93.262,29.297
1584599940.427,19.531,26.855,31.738,49.805,-7.324
1584599940.431,-4.883,25.391,29.297,-40.527,9.766
1584599940.435,20.508,27.832,32.715,-11.719,30.273
1584599940.438,47.852,29.297,34.668,89.844,59.570
1584599940.442,30.762,28.809,31.738,75.195,23.438
1584599940.446,-4.883,24.414,30.273,-19.043,-15.137
1584599940.450,2.441,27.832,29.297,-33.691,51.758
1584599940.454,41.016,34.180,31.738,54.199,28.320
1584599940.458,38.574,32.227,32.715,91.309,24.414
1584599940.462,0.977,28.320,29.785,6.836,46.387
1584599940.466,0.488,30.273,30.762,-40.039,50.293
1584599940.470,36.133,32.227,32.715,42.480,71.777
1584599940.474,49.805,31.738,30.273,109.863,83.984
1584599940.477,19.043,25.879,28.809,41.016,72.266
1584599940.481,-7.812,20.508,30.762,-41.016,103.027
1584599940.485,20.020,26.367,34.180,12.695,108.398
1584599940.489,43.945,30.762,33.203,98.633,20.508
1584599940.493,18.555,23.926,27.832,59.082,4.883
1584599940.497,-5.859,20.508,26.367,-38.086,6.836
1584599940.501,17.578,26.855,27.344,-18.066,41.016
1584599940.505,47.363,30.273,31.250,87.402,55.664
1584599940.509,34.180,28.320,31.738,84.473,38.574
1584599940.513,0.488,23.438,27.832,-11.719,-12.695
1584599940.517,6.836,23.926,27.344,-32.715,-9.766
1584599940.520,42.480,30.273,27.832,60.547,61.035
1584599940.524,41.992,28.320,27.344,97.656,-10.254
1584599940.528,7.324,22.461,28.320,15.137,-23.926
1584599940.532,0.000,21.973,29.297,-35.645,24.414
1584599940.536,34.180,24.902,30.273,36.133,7.324
1584599940.540,42.480,25.879,29.785,95.215,21.973
1584599940.544,12.207,22.949,25.391,32.715,48.340
1584599940.548,-5.859,22.949,23.438,-41.992,-1.953
1584599940.552,20.020,29.297,23.926,3.906,14.160
1584599940.556,47.363,31.738,25.879,95.703,106.934
1584599940.560,31.250,30.273,27.832,67.871,62.988
1584599940.563,0.000,28.809,26.855,-19.043,8.301
1584599940.567,10.742,29.785,27.344,-12.207,17.578
1584599940.571,43.945,34.668,27.832,78.125,32.715
1584599940.575,41.016,33.203,27.344,90.820,9.277
1584599940.579,4.883,26.855,26.367,-3.418,61.523
1584599940.583,2.930,26.367,23.438,-33.691,56.641
1584599940.587,40.527,30.762,25.879,50.781,-33.203
1584599940.591,43.945,32.715,30.762,93.262,14.648
1584599940.595,11.230,28.809,29.297,20.508,23.438
1584599940.599,0.000,24.902,29.297,-39.062,-7.812
1584599940.602,26.855,29.297,29.785,25.879,15.625
1584599940.606,42.480,33.691,31.738,99.609,-16.113
1584599940.610,19.531,30.273,29.297,40.527,-7.324
1584599940.614,-2.441,24.902,26.367,-43.457,-24.414
1584599940.618,20.996,27.832,27.344,-7.324,1.465
1584599940.622,44.922,33.203,26.855,83.008,36.133
1584599940.626,28.320,30.273,25.391,69.336,14.160
1584599940.630,3.418,27.344,23.926,-25.879,40.527
1584599940.634,15.625,30.762,23.438,-33.203,48.828
1584599940.638,44.434,35.156,25.879,66.895,9.766
1584599940.642,35.645,33.691,26.367,86.426,0.488
1584599940.645,-1.953,27.344,21.973,-13.672,25.879
1584599940.649,-0.977,28.809,25.879,-45.898,71.289
1584599940.653,38.086,35.156,33.203,50.293,68.848
1584599940.657,43.945,32.715,33.691,97.656,43.945
1584599940.661,5.371,21.484,32.227,15.137,27.832
1584599940.665,-10.254,18.555,32.715,-51.270,-25.391
1584599940.669,25.391,26.367,34.668,14.160,-20.020
1584599940.673,43.945,30.273,35.156,93.750,35.156
1584599940.677,14.160,27.344,32.227,44.434,28.809
1584599940.681,-14.160,24.414,27.344,-43.457,-14.648
1584599940.685,6.836,27.832,30.762,-11.719,-6.836
1584599940.688,42.480,32.227,35.645,86.914,29.297
1584599940.692,34.180,28.809,34.180,75.195,33.203
1584599940.696,0.000,26.855,31.738,-18.555,40.527
1584599940.700,6.348,27.832,33.203,-23.926,78.613
1584599940.704,41.504,28.320,37.109,69.336,41.504
1584599940.708,40.039,25.391,38.086,94.238,-1.953
1584599940.712,6.348,22.949,38.086,7.812,35.645
1584599940.716,4.395,23.438,38.574,-32.715,67.383
1584599940.720,37.109,26.855,39.551,46.875,10.254
1584599940.724,43.945,26.855,39.551,101.562,22.949
1584599940.727,17.578,23.926,37.109,34.668,35.156
1584599940.731,2.441,24.414,35.645,-37.109,18.066
1584599940.735,28.809,25.391,36.621,8.301,24.902
1584599940.739,48.828,27.832,35.645,89.844,38.086
1584599940.743,22.949,27.832,32.227,59.570,23.926
1584599940.747,-4.395,24.414,28.320,-25.879,-4.395
1584599940.751,15.137,28.320,29.785,-7.812,-16.113
1584599940.755,42.480,33.691,30.762,86.914,-8.301
1584599940.759,29.297,30.762,27.832,86.426,-1.953
1584599940.763,-1.465,26.855,25.391,-6.836,3.906
1584599940.767,5.371,29.785,27.344,-26.367,7.812
1584599940.770,41.992,34.668,28.809,60.547,11.719
1584599940.774,41.992,36.621,25.391,91.309,-20.020
1584599940.778,1.465,28.320,21.484,3.418,3.418
1584599940.782,-10.254,23.926,21.973,-52.734,62.500
1584599940.786,26.367,33.691,28.320,24.902,35.156
1584599940.790,42.969,34.668,29.297,95.215,22.949
1584599940.794,15.137,27.344,27.344,35.156,32.227
1584599940.798,-6.836,27.344,24.902,-45.410,2.441
1584599940.802,21.484,32.227,24.902,-1.465,33.203
1584599940.806,50.781,34.668,29.297,92.285,20.508
1584599940.810,29.785,32.715,26.855,64.453,19.043
1584599940.813,-5.859,27.344,20.020,-34.180,64.453
1584599940.817,4.883,28.320,20.996,-24.414,16.602
1584599940.821,35.645,32.227,22.949,73.730,8.301
1584599940.825,25.879,27.832,21.484,73.730,25.879
1584599940.829,-6.836,26.855,20.020,-21.973,81.055
1584599940.833,-1.465,29.785,20.508,-42.480,99.609
1584599940.837,36.621,33.203,22.461,54.199,50.293
1584599940.841,42.480,33.203,23.926,100.586,13.184
1584599940.845,4.883,29.297,21.484,18.066,50.781
1584599940.849,-6.836,27.344,21.973,-41.992,90.820
1584599940.852,26.855,31.250,27.344,28.809,49.316
1584599940.856,44.922,33.203,28.320,95.703,-6.348
1584599940.860,19.043,33.691,25.391,39.551,-21.973
1584599940.864,-5.371,33.203,24.902,-35.645,18.555
1584599940.868,16.113,33.203,26.367,0.977,67.383
1584599940.872,43.457,34.668,28.320,83.984,-27.832
1584599940.876,30.273,35.645,29.785,66.895,-19.043
1584599940.880,-1.953,31.250,26.367,-19.043,44.922
1584599940.884,8.301,30.273,25.391,-21.973,-63.965
1584599940.888,43.457,33.203,27.832,71.777,-27.832
1584599940.892,35.156,30.762,26.367,88.867,64.941
1584599940.895,0.977,25.879,25.879,-1.465,77.637
1584599940.899,4.395,25.391,30.762,-39.062,76.660
1584599940.903,37.109,28.809,32.715,43.457,16.602
1584599940.907,41.504,32.715,29.785,96.191,-11.719
1584599940.911,9.766,30.762,27.832,20.996,-13.672
1584599940.915,-5.371,22.949,27.344,-48.340,-0.488
1584599940.919,25.879,24.902,27.344,12.207,29.785
1584599940.923,44.434,30.273,29.785,94.727,66.895
1584599940.927,20.020,25.879,28.320,52.246,65.918
1584599940.931,-4.395,23.438,25.391,-34.668,64.941
1584599940.935,12.207,31.250,27.344,-7.324,64.941
1584599940.938,40.039,31.738,31.738,94.238,31.250
1584599940.942,28.320,27.344,31.250,83.984,1.953
1584599940.946,-4.395,29.297,24.902,-15.625,12.695
1584599940.950,7.324,34.180,23.438,-32.715,5.859
1584599940.954,43.457,37.109,25.879,63.965,-9.277
1584599940.958,39.062,31.250,28.320,94.727,-28.809
1584599940.962,4.395,25.879,26.855,-0.977,-28.320
1584599940.966,-1.465,30.273,26.855,-45.410,3.906
1584599940.970,34.180,35.156,29.785,44.434,52.246
1584599940.974,49.805,37.109,27.344,107.422,32.715
1584599940.977,20.996,33.203,25.879,36.621,24.902
1584599940.981,1.465,30.762,27.344,-32.715,48.828
1584599940.985,34.180,35.156,29.785,22.949,20.508
1584599940.989,57.617,35.645,31.738,104.004,11.230
