timestamps,TP9,AF7,AF8,TP10,Right AUX
1584546405.868,33.203,26.855,29.785,26.367,57.617
1584546405.872,12.695,30.273,31.738,55.176,23.438
1584546405.876,14.648,32.227,31.738,34.180,5.371
1584546405.880,30.273,26.367,29.297,1.465,-8.789
1584546405.884,32.715,23.926,29.785,14.648,-26.855
1584546405.888,16.602,26.855,28.809,44.922,-6.836
1584546405.892,8.301,29.785,27.832,35.645,4.883
1584546405.895,19.043,27.832,27.344,-0.488,17.578
1584546405.899,29.297,27.344,25.879,2.930,36.621
1584546405.903,18.555,25.879,29.297,40.527,37.109
1584546405.907,6.836,23.926,31.738,47.852,0.000
1584546405.911,18.555,25.391,29.785,18.066,8.789
1584546405.915,30.762,26.855,25.879,1.465,63.477
1584546405.919,22.949,28.809,25.879,22.949,36.621
1584546405.923,7.812,32.227,29.297,43.945,-5.859
1584546405.927,15.137,31.738,30.762,22.949,27.344
1584546405.931,32.715,27.344,29.297,-2.441,60.059
1584546405.935,34.668,24.414,27.344,18.066,54.199
1584546405.938,22.949,26.855,27.344,42.480,58.594
1584546405.942,17.578,30.273,26.855,22.461,9.766
1584546405.946,31.738,30.762,24.902,-5.859,-21.973
1584546405.950,40.527,31.250,23.926,6.348,38.086
1584546405.954,22.461,32.227,22.461,36.621,93.262
1584546405.958,11.719,31.738,21.973,33.691,26.855
1584546405.962,23.926,28.320,21.973,1.465,-10.742
1584546405.966,31.250,26.367,23.438,-2.441,4.395
1584546405.970,18.066,26.367,27.832,31.738,-20.996
1584546405.974,10.254,29.297,31.250,44.922,4.883
1584546405.978,20.508,30.762,29.785,16.113,62.988
1584546405.981,33.691,30.762,25.391,-2.930,58.594
1584546405.985,26.855,30.273,27.832,22.949,25.879
1584546405.989,14.648,33.203,32.715,49.805,44.922
1584546405.993,19.043,33.203,27.832,31.250,66.895
1584546405.997,32.715,27.344,23.438,1.953,62.012
1584546406.001,34.668,29.785,27.832,16.113,18.555
1584546406.005,16.602,33.691,30.273,47.363,-14.648
1584546406.009,14.160,32.227,31.250,37.598,18.066
1584546406.013,31.250,30.273,30.762,5.859,75.195
1584546406.017,31.250,29.785,31.250,6.348,80.566
1584546406.020,16.113,31.250,30.273,38.086,52.734
1584546406.024,12.695,32.227,27.344,43.457,52.246
1584546406.028,24.902,32.227,28.320,9.277,36.621
1584546406.032,37.109,30.273,30.762,1.953,-8.301
1584546406.036,26.367,27.832,33.691,34.180,-12.695
1584546406.040,12.207,28.809,35.645,49.805,-4.395
1584546406.044,19.531,28.320,33.203,13.672,-27.832
1584546406.048,35.156,27.344,32.715,-2.441,27.832
1584546406.052,30.762,26.855,36.621,34.180,73.730
1584546406.056,14.648,27.344,37.598,56.152,53.711
1584546406.060,20.508,30.762,36.133,33.691,28.320
1584546406.063,38.086,31.250,32.227,8.301,59.570
1584546406.067,42.480,30.273,31.738,26.855,49.805
1584546406.071,26.367,30.273,33.203,53.711,25.879
1584546406.075,18.066,31.738,30.273,39.062,54.199
1584546406.079,30.762,30.762,25.391,3.906,3.906
1584546406.083,35.156,31.250,26.367,5.371,8.301
1584546406.087,20.996,30.273,32.715,34.180,37.598
1584546406.091,10.254,31.738,34.668,39.062,15.625
1584546406.095,18.066,32.715,31.738,12.695,19.531
1584546406.099,29.297,28.320,28.809,2.441,30.273
1584546406.103,25.391,29.785,31.250,36.621,53.223
1584546406.106,17.090,32.227,34.180,59.570,22.949
1584546406.110,22.949,32.715,32.227,29.297,52.246
1584546406.114,37.109,31.250,28.320,0.977,21.484
1584546406.118,34.180,29.785,29.785,27.344,-26.855
1584546406.122,17.578,31.250,33.203,54.199,-8.789
1584546406.126,12.207,30.762,31.250,27.344,-5.371
1584546406.130,20.996,28.320,27.344,-11.230,52.734
1584546406.134,25.879,26.855,26.855,-0.488,37.109
1584546406.138,16.113,30.762,30.273,41.504,-5.371
1584546406.142,11.230,34.180,30.273,37.109,14.160
1584546406.145,23.926,31.250,24.902,-2.441,39.062
1584546406.149,35.156,27.344,24.902,-2.930,20.020
1584546406.153,24.414,28.320,26.855,34.180,21.484
1584546406.157,18.555,31.250,25.391,48.340,20.020
1584546406.161,30.762,29.785,25.391,20.020,-13.184
1584546406.165,39.062,24.902,26.367,5.371,38.574
1584546406.169,25.879,25.391,23.438,26.855,47.363
1584546406.173,10.254,30.762,23.926,46.875,48.340
1584546406.177,19.043,31.250,23.926,19.043,27.832
1584546406.181,39.062,29.785,21.973,-10.254,-26.367
1584546406.185,39.551,32.715,24.902,16.602,-40.527
1584546406.188,20.508,33.691,28.320,44.922,-2.441
1584546406.192,14.648,32.227,29.297,24.902,30.762
1584546406.196,21.484,28.809,28.320,-8.301,20.020
1584546406.200,25.879,27.344,29.785,5.371,20.996
1584546406.204,18.066,30.273,30.273,38.086,33.691
1584546406.208,11.719,31.738,27.344,32.715,20.508
1584546406.212,27.832,29.785,24.414,2.441,1.465
1584546406.216,39.551,28.320,23.926,6.348,23.926
1584546406.220,26.855,31.738,26.855,38.574,62.988
1584546406.224,19.531,31.250,28.320,44.434,7.812
1584546406.228,31.738,31.738,27.344,15.137,-36.621
1584546406.231,47.363,32.227,27.832,2.441,6.836
1584546406.235,39.551,31.738,28.809,29.297,21.484
1584546406.239,21.973,32.227,30.762,52.246,-1.953
1584546406.243,26.367,29.785,30.762,33.203,-3.906
1584546406.247,41.504,26.367,29.297,8.301,-19.531
1584546406.251,33.203,26.367,29.297,18.555,5.371
1584546406.255,15.137,32.227,29.785,43.945,64.941
1584546406.259,20.996,33.691,30.273,37.598,65.430
1584546406.263,39.551,28.320,28.320,11.719,60.059
1584546406.267,40.527,27.344,26.855,13.184,86.426
1584546406.270,23.926,29.297,28.320,34.668,58.105
1584546406.274,15.137,32.227,30.273,42.480,37.109
1584546406.278,31.250,31.250,29.785,20.508,34.180
1584546406.282,42.969,25.879,33.691,16.602,7.812
1584546406.286,28.809,25.391,39.551,46.387,26.367
1584546406.290,8.301,29.785,37.598,49.316,31.250
1584546406.294,9.766,30.762,29.785,11.230,-1.465
1584546406.298,28.809,28.809,25.879,-9.277,10.254
1584546406.302,23.438,26.367,26.855,18.066,34.180
1584546406.306,7.324,27.344,28.809,46.875,-11.230
1584546406.310,14.648,28.320,29.785,24.414,-11.230
1584546406.313,28.809,24.902,29.297,-3.906,14.160
1584546406.317,28.809,25.879,32.227,15.137,40.039
1584546406.321,19.531,30.762,36.621,49.316,97.656
1584546406.325,16.602,32.227,36.133,41.504,75.684
1584546406.329,27.344,31.250,33.691,6.348,-5.859
1584546406.333,30.762,32.227,32.715,4.883,36.621
1584546406.337,15.625,35.156,32.227,32.715,45.898
1584546406.341,7.324,33.691,30.273,42.480,-0.977
1584546406.345,23.926,32.227,29.785,16.602,2.441
1584546406.349,39.062,28.320,30.762,7.324,-6.836
1584546406.353,26.367,28.809,31.250,31.738,26.367
1584546406.356,11.230,33.203,30.762,42.480,46.387
1584546406.360,19.531,33.203,29.297,12.695,29.297
1584546406.364,36.621,30.273,29.297,-3.906,31.738
1584546406.368,32.227,28.320,32.227,31.250,35.645
1584546406.372,14.160,27.832,31.738,51.270,64.453
1584546406.376,14.648,28.320,31.738,22.949,51.758
1584546406.380,31.738,27.344,31.250,-0.488,22.461
1584546406.384,31.738,26.855,27.832,11.230,32.227
1584546406.388,11.230,24.414,28.809,39.062,11.719
1584546406.392,9.766,26.367,27.832,33.203,9.766
1584546406.395,29.297,29.297,27.344,4.883,39.551
1584546406.399,34.668,27.832,26.855,9.277,-21.484
1584546406.403,22.949,29.297,26.855,36.621,-34.668
1584546406.407,16.602,28.320,29.297,41.504,19.043
1584546406.411,25.391,24.902,30.273,18.066,11.230
1584546406.415,34.668,25.879,29.297,6.348,19.043
1584546406.419,20.996,29.297,25.879,20.020,21.484
1584546406.423,5.859,31.250,27.344,32.227,21.973
1584546406.427,17.090,30.762,29.297,16.113,71.289
1584546406.431,34.180,30.273,27.344,0.977,19.531
1584546406.435,25.879,29.785,30.273,23.926,28.809
1584546406.438,12.695,31.250,35.645,55.664,69.336
1584546406.442,17.578,30.762,36.133,46.387,42.969
1584546406.446,28.809,25.879,31.738,6.348,8.789
1584546406.450,25.879,25.391,28.320,6.348,-42.480
1584546406.454,7.324,29.297,31.250,40.039,21.973
1584546406.458,2.441,31.250,30.762,39.062,40.039
1584546406.462,17.578,27.832,25.391,-2.441,20.996
1584546406.466,27.832,27.344,27.832,-13.184,2.930
1584546406.470,14.160,31.250,31.738,22.949,4.395
1584546406.474,4.883,29.297,32.227,40.527,81.055
1584546406.478,20.020,27.344,30.273,16.113,40.527
1584546406.481,32.227,27.832,26.855,-0.977,-11.719
1584546406.485,26.855,29.785,29.785,25.391,41.992
1584546406.489,16.113,29.297,34.668,49.805,101.562
1584546406.493,17.090,29.297,33.203,24.902,85.449
1584546406.497,30.273,33.203,29.785,-3.906,27.832
1584546406.501,28.320,32.227,28.320,9.766,15.137
1584546406.505,8.301,30.273,28.809,34.668,27.832
1584546406.509,4.395,29.785,29.785,22.949,39.551
1584546406.513,23.926,31.250,29.785,-1.465,19.531
1584546406.517,31.738,31.250,29.785,11.230,5.859
1584546406.520,16.602,31.250,27.832,34.180,26.367
1584546406.524,8.789,31.250,27.832,32.227,6.836
1584546406.528,18.066,27.832,27.344,3.418,-9.766
1584546406.532,26.367,25.879,25.391,-8.301,-47.852
1584546406.536,16.602,27.344,26.855,17.578,-25.879
1584546406.540,4.395,27.344,30.273,37.109,-5.859
1584546406.544,14.648,25.391,29.785,16.602,-0.488
1584546406.548,32.227,24.414,29.785,-5.371,39.551
1584546406.552,30.273,25.879,31.738,19.043,43.945
1584546406.556,14.160,29.297,32.227,42.969,65.430
1584546406.560,9.766,30.762,27.832,14.648,87.402
1584546406.563,21.973,30.273,24.902,-19.043,54.199
1584546406.567,23.438,28.809,25.879,1.953,13.184
1584546406.571,8.301,27.344,27.832,38.574,36.133
1584546406.575,10.742,28.320,29.297,32.227,17.578
1584546406.579,24.902,27.832,27.344,1.953,-9.766
1584546406.583,25.391,26.367,24.414,-3.418,7.812
1584546406.587,13.184,30.762,24.902,25.879,49.805
1584546406.591,7.812,33.203,25.391,39.062,41.992
1584546406.595,21.973,29.297,24.902,14.160,8.301
1584546406.599,31.250,26.367,25.879,-5.859,-7.324
1584546406.603,16.602,27.344,28.320,15.137,0.977
1584546406.606,8.789,29.785,29.785,40.527,16.113
1584546406.610,23.926,27.832,29.785,23.438,51.758
1584546406.614,41.504,26.367,28.809,9.766,53.711
1584546406.618,34.180,28.809,29.785,30.273,-24.414
1584546406.622,11.719,31.738,30.273,44.922,-20.996
1584546406.626,10.742,33.691,26.855,29.297,27.832
1584546406.630,29.785,34.668,26.367,6.836,17.090
1584546406.634,34.180,35.156,26.855,19.043,-13.672
1584546406.638,20.020,36.133,26.855,49.316,34.180
1584546406.642,17.578,34.180,26.855,39.551,56.641
1584546406.645,36.621,31.250,25.391,3.418,29.297
1584546406.649,47.852,31.738,25.879,7.812,24.902
1584546406.653,30.273,33.203,27.344,40.039,51.758
1584546406.657,14.648,33.203,31.250,50.293,57.617
1584546406.661,23.438,32.227,32.227,21.973,24.414
1584546406.665,33.203,34.180,28.809,-4.883,27.344
1584546406.669,21.484,35.645,30.273,21.484,103.516
1584546406.673,12.207,34.668,35.156,50.293,82.520
1584546406.677,21.484,31.738,33.203,26.367,0.488
1584546406.681,32.227,28.809,32.227,-2.930,21.973
1584546406.685,20.508,26.367,31.250,11.230,43.457
1584546406.688,1.953,27.832,28.809,33.203,11.719
1584546406.692,8.789,30.273,28.320,20.020,7.324
1584546406.696,21.973,28.809,26.367,-2.930,6.348
1584546406.700,25.391,27.832,26.367,6.836,-12.207
1584546406.704,13.184,29.297,29.297,36.133,17.090
1584546406.708,5.859,32.227,26.367,31.738,53.711
1584546406.712,18.555,32.715,22.461,-1.953,44.922
1584546406.716,27.832,29.785,22.461,-3.418,-9.277
1584546406.720,15.137,29.785,27.344,30.273,-12.207
1584546406.724,5.859,31.250,28.320,42.969,9.766
1584546406.728,19.043,30.762,25.391,17.578,6.348
1584546406.731,32.715,27.832,27.344,2.930,11.719
1584546406.735,21.484,24.902,31.738,26.367,20.996
1584546406.739,-0.488,27.832,31.738,46.387,43.945
1584546406.743,0.977,28.809,28.809,20.508,17.578
1584546406.747,20.996,23.926,27.344,-10.742,-18.066
1584546406.751,23.438,22.949,25.879,13.184,28.809
1584546406.755,11.230,25.879,29.785,51.270,66.406
1584546406.759,5.859,26.855,29.785,33.691,72.754
1584546406.763,18.066,26.855,23.438,-1.953,61.523
1584546406.767,24.414,25.879,22.461,3.906,-11.230
1584546406.770,11.230,26.855,24.902,38.574,-28.320
1584546406.774,12.695,28.809,27.344,46.387,50.293
1584546406.778,32.227,28.320,26.855,18.555,47.852
1584546406.782,33.691,28.320,24.414,8.301,25.391
1584546406.786,18.066,28.320,27.832,35.156,50.781
1584546406.790,8.789,26.367,32.715,46.875,-1.953
1584546406.794,21.973,25.879,31.738,16.113,-51.270
1584546406.798,33.203,27.832,28.320,-4.883,-8.301
1584546406.802,25.391,28.320,29.785,20.996,6.836
1584546406.806,12.695,29.297,32.227,46.875,0.000
1584546406.810,15.625,29.785,28.809,20.996,5.371
1584546406.813,31.738,27.832,24.902,-5.371,53.711
1584546406.817,31.738,26.855,26.855,18.066,121.582
1584546406.821,18.066,28.320,30.762,48.340,68.359
1584546406.825,18.066,27.344,31.738,35.645,15.137
1584546406.829,31.250,26.855,32.715,2.930,42.480
1584546406.833,33.203,24.902,32.715,5.371,-5.859
1584546406.837,23.438,24.902,32.227,36.621,28.320
1584546406.841,11.230,23.926,33.691,38.574,64.941
1584546406.845,20.996,19.043,34.180,13.184,-13.184
1584546406.849,30.762,17.578,30.273,2.441,-28.809
1584546406.853,16.113,23.438,27.832,23.926,2.441
1584546406.856,8.789,27.344,31.250,39.062,44.434
1584546406.860,14.648,25.391,33.203,12.695,19.043
1584546406.864,28.320,24.902,29.297,-6.348,10.254
1584546406.868,30.762,24.902,28.809,14.648,-5.859
1584546406.872,17.578,24.414,31.250,41.016,16.602
1584546406.876,15.137,23.926,32.715,23.438,44.434
1584546406.880,29.785,22.461,30.273,1.465,37.598
1584546406.884,26.855,20.996,29.297,10.742,18.555
1584546406.888,9.277,24.414,31.738,35.156,41.504
1584546406.892,11.230,23.926,31.250,35.645,23.926
1584546406.895,27.344,19.043,29.785,8.301,11.719
1584546406.899,33.691,17.578,32.715,13.672,44.434
1584546406.903,19.531,17.578,34.668,42.969,6.348
1584546406.907,5.859,16.113,37.109,44.434,3.418
1584546406.911,13.184,14.648,35.645,10.742,15.625
1584546406.915,20.996,17.090,27.832,-8.301,43.945
1584546406.919,14.648,20.508,26.367,23.438,23.926
1584546406.923,9.766,20.508,32.227,51.270,1.953
1584546406.927,19.043,19.531,32.715,22.461,-18.555
1584546406.931,27.832,21.484,27.344,-10.742,-65.430
1584546406.935,22.949,25.391,28.809,12.695,9.766
1584546406.938,8.789,24.414,33.203,48.340,53.711
1584546406.942,9.277,22.461,34.180,35.645,30.273
1584546406.946,25.391,22.461,32.715,0.488,15.625
1584546406.950,31.738,23.438,33.203,15.625,37.598
1584546406.954,15.625,26.855,33.691,47.852,50.293
1584546406.958,12.695,29.297,32.227,42.969,6.836
1584546406.962,33.691,29.297,31.738,17.578,5.859
1584546406.966,39.551,25.391,30.273,11.719,28.809
1584546406.970,19.043,24.902,32.227,35.156,-1.953
1584546406.974,6.836,27.344,33.203,39.062,3.906
1584546406.978,20.020,25.879,31.738,19.043,6.348
1584546406.981,38.574,23.438,29.297,11.719,-41.016
1584546406.985,30.273,21.973,29.785,31.250,-5.859
1584546406.989,11.230,24.414,31.738,53.223,-6.836
1584546406.993,18.066,25.391,30.273,22.949,-10.742
1584546406.997,29.297,23.438,26.855,-11.230,34.180
1584546407.001,24.414,23.926,27.344,10.254,19.043
1584546407.005,13.672,26.367,30.273,44.434,10.742
1584546407.009,13.184,26.855,28.809,37.109,50.781
1584546407.013,28.809,27.832,23.926,5.371,54.688
1584546407.017,36.133,27.832,23.926,8.789,-3.418
1584546407.020,16.602,25.391,29.785,35.645,-30.762
1584546407.024,3.418,23.926,30.273,32.715,20.020
1584546407.028,16.602,22.949,25.879,2.441,37.598
1584546407.032,30.273,21.973,24.414,-2.441,23.438
1584546407.036,20.020,23.926,26.367,29.297,61.035
1584546407.040,7.812,26.367,27.832,42.480,66.895
1584546407.044,16.602,25.391,27.344,13.184,77.148
1584546407.048,29.297,25.391,24.902,-8.301,56.152
1584546407.052,22.461,27.344,26.367,18.555,38.086
1584546407.056,7.812,28.320,30.762,43.457,68.848
1584546407.060,12.695,27.832,30.762,24.902,48.340
1584546407.063,25.879,25.879,28.809,-3.906,40.039
1584546407.067,22.949,26.367,27.344,8.301,40.527
1584546407.071,11.719,27.344,29.785,43.457,30.273
1584546407.075,8.301,24.902,33.203,34.180,-3.418
1584546407.079,20.508,23.438,32.227,0.000,0.000
1584546407.083,26.855,24.902,30.273,0.977,20.020
1584546407.087,6.836,25.391,30.762,29.785,-7.812
1584546407.091,-4.395,24.902,29.297,28.809,27.344
1584546407.095,11.230,24.414,26.855,-1.465,48.828
1584546407.099,26.855,24.414,28.809,-1.953,29.785
1584546407.103,12.207,25.879,33.203,21.484,20.996
1584546407.106,-3.418,26.855,31.250,28.809,52.246
1584546407.110,4.395,26.367,27.832,6.348,24.902
1584546407.114,21.973,27.344,24.902,-7.324,38.574
1584546407.118,19.043,27.832,28.320,17.578,44.434
1584546407.122,-0.977,27.344,33.203,39.062,50.781
1584546407.126,-3.418,24.902,31.250,16.602,34.668
1584546407.130,7.812,22.949,27.344,-10.254,10.254
1584546407.134,12.207,25.879,26.855,6.348,53.711
1584546407.138,0.000,27.832,27.832,37.598,66.406
1584546407.142,-1.953,28.320,29.297,31.250,43.945
1584546407.145,18.066,24.902,30.762,1.953,38.574
1584546407.149,20.508,21.973,29.785,-0.977,45.410
1584546407.153,0.000,22.949,26.855,19.531,-6.836
1584546407.157,-7.324,26.367,26.367,22.461,-16.602
1584546407.161,6.836,28.809,27.344,-0.977,27.832
1584546407.165,20.508,25.879,24.902,-10.254,4.883
1584546407.169,12.695,23.438,26.855,12.207,38.574
1584546407.173,-1.953,26.367,30.762,31.738,43.457
1584546407.177,9.766,27.344,27.344,16.113,28.809
1584546407.181,35.645,26.367,27.344,5.371,31.738
1584546407.185,29.297,27.344,30.762,26.367,-23.926
1584546407.188,2.441,29.785,28.320,42.480,-30.273
1584546407.192,-1.465,33.203,25.391,22.461,56.152
1584546407.196,19.043,34.668,24.902,-4.395,69.336
1584546407.200,29.297,33.203,26.855,12.695,39.551
1584546407.204,13.184,32.715,27.344,42.969,25.879
1584546407.208,6.836,32.715,25.391,34.668,25.879
1584546407.212,25.391,30.762,22.949,2.441,63.477
1584546407.216,34.668,29.785,22.461,1.953,34.180
1584546407.220,21.484,31.250,28.320,37.109,-0.977
1584546407.224,11.719,31.250,31.250,51.758,41.504
1584546407.228,21.484,30.762,27.344,21.973,65.430
1584546407.231,30.762,28.809,23.438,-2.930,42.969
1584546407.235,19.043,27.344,24.902,17.090,8.301
1584546407.239,10.254,30.762,24.902,41.504,21.484
1584546407.243,19.531,28.320,23.438,21.484,35.156
1584546407.247,29.297,20.020,22.949,-1.953,-26.855
1584546407.251,24.414,20.996,26.367,15.625,2.930
1584546407.255,12.207,24.902,27.832,42.969,52.734
1584546407.259,8.301,24.414,23.926,21.973,37.598
1584546407.263,21.973,23.926,20.996,-10.254,32.715
1584546407.267,27.344,22.949,20.020,0.977,40.039
1584546407.270,11.230,25.879,23.438,31.250,8.789
1584546407.274,5.859,27.344,28.809,29.785,-36.133
1584546407.278,19.043,25.391,27.832,-1.953,41.504
1584546407.282,33.691,23.926,26.855,-1.465,47.852
1584546407.286,24.902,24.414,27.832,27.832,25.391
1584546407.290,12.207,25.391,28.320,38.086,26.367
1584546407.294,20.996,26.367,28.809,12.207,43.457
1584546407.298,30.762,24.414,28.320,-12.207,55.176
1584546407.302,21.973,21.973,25.879,8.789,32.715
1584546407.306,8.301,25.879,24.902,33.691,37.109
1584546407.310,12.695,29.297,25.391,15.625,5.371
1584546407.313,24.902,26.367,22.949,-10.254,23.438
1584546407.317,18.066,25.391,21.484,4.395,13.184
1584546407.321,1.953,25.879,25.391,34.668,-21.973
1584546407.325,2.441,24.902,28.320,22.949,25.879
1584546407.329,19.043,22.949,26.367,-7.812,30.762
1584546407.333,23.438,23.438,25.391,-2.930,4.883
1584546407.337,8.789,26.855,30.273,29.785,45.898
1584546407.341,4.883,27.344,33.203,33.691,20.508
1584546407.345,16.113,24.414,29.297,-3.418,-29.297
1584546407.349,25.879,23.438,24.902,-16.113,-36.621
1584546407.353,18.555,24.902,26.367,14.648,-22.949
1584546407.356,10.742,30.273,25.391,33.203,67.383
1584546407.360,23.926,31.250,24.902,11.719,63.965
1584546407.364,33.203,23.926,27.832,-6.836,-52.246
1584546407.368,22.461,23.438,31.250,12.695,-53.223
1584546407.372,10.742,27.832,31.738,41.016,17.090
1584546407.376,13.672,26.367,28.320,24.902,46.387
1584546407.380,29.785,25.391,26.855,1.953,26.855
1584546407.384,33.691,27.832,24.902,14.160,32.715
1584546407.388,15.137,29.297,25.391,37.109,26.855
1584546407.392,10.254,27.344,25.391,25.391,0.488
1584546407.395,28.320,25.879,23.438,-9.766,82.031
1584546407.399,37.109,27.832,23.926,-2.441,124.512
1584546407.403,27.344,27.832,25.391,37.109,67.871
1584546407.407,18.066,26.367,28.320,47.363,7.812
1584546407.411,20.996,25.391,24.414,9.277,-20.508
1584546407.415,29.297,25.391,20.996,-8.301,-41.992
1584546407.419,22.461,28.809,25.879,22.461,-43.945
1584546407.423,12.695,30.762,29.297,44.922,-30.762
1584546407.427,24.902,30.273,26.855,25.391,-11.719
1584546407.431,42.480,28.809,25.391,11.230,-12.695
1584546407.435,42.969,29.297,26.367,36.621,16.113
1584546407.438,23.926,31.250,28.320,52.246,25.391
1584546407.442,17.090,31.250,29.785,27.344,16.602
1584546407.446,33.203,29.297,28.320,-3.906,16.113
1584546407.450,37.598,31.250,31.738,12.207,12.695
1584546407.454,22.461,32.227,33.203,44.434,41.504
1584546407.458,9.277,29.785,30.762,35.645,33.691
1584546407.462,22.461,27.832,29.297,2.930,60.059
1584546407.466,33.203,28.809,27.344,5.371,90.332
1584546407.470,17.578,29.297,32.227,36.621,39.551
1584546407.474,5.859,28.809,35.156,44.434,23.926
1584546407.478,18.066,27.344,32.227,18.066,29.785
1584546407.481,35.156,25.391,28.320,0.488,48.340
1584546407.485,25.879,28.320,28.320,20.508,91.797
1584546407.489,6.836,27.832,32.715,42.480,27.344
1584546407.493,9.766,22.461,33.691,23.438,-13.184
1584546407.497,26.855,20.996,34.180,-5.371,68.359
1584546407.501,22.461,22.949,37.109,9.766,78.613
1584546407.505,5.371,26.367,39.551,41.992,30.762
1584546407.509,4.883,24.414,35.156,28.809,33.691
1584546407.513,24.902,25.391,30.273,-0.977,23.926
1584546407.517,33.691,27.344,31.738,9.766,-14.160
1584546407.520,18.066,25.879,34.668,42.480,1.953
1584546407.524,6.836,24.902,35.645,37.598,65.430
1584546407.528,18.555,23.438,34.180,3.418,73.242
1584546407.532,28.809,23.438,31.738,0.488,43.945
1584546407.536,16.113,25.391,30.762,32.227,42.969
1584546407.540,10.254,25.391,31.250,43.457,18.555
1584546407.544,20.996,23.438,30.762,10.742,28.320
1584546407.548,30.762,23.926,28.809,-6.348,34.180
1584546407.552,25.391,24.902,28.809,24.414,42.969
1584546407.556,10.742,25.391,31.738,47.363,30.762
1584546407.560,14.160,23.926,28.809,25.391,-14.648
1584546407.563,35.645,25.879,27.832,5.371,11.230
1584546407.567,38.574,30.273,30.273,24.414,56.641
1584546407.571,17.578,31.738,30.273,46.387,24.902
1584546407.575,13.184,28.809,30.273,35.645,16.602
1584546407.579,29.785,27.832,28.809,8.301,32.715
1584546407.583,33.203,30.273,27.832,3.906,38.086
1584546407.587,15.137,29.785,30.273,32.715,23.926
1584546407.591,11.719,29.297,30.273,36.621,-29.785
1584546407.595,28.809,31.250,27.344,5.371,19.531
1584546407.599,38.086,30.762,28.320,0.977,67.871
1584546407.603,28.320,31.738,30.273,29.297,8.301
1584546407.606,20.508,35.645,29.785,46.387,-21.973
1584546407.610,28.809,34.668,28.809,20.508,19.531
1584546407.614,36.621,29.297,29.297,-2.441,-12.207
1584546407.618,29.297,28.320,28.320,25.879,-79.102
1584546407.622,16.113,30.762,28.809,50.293,10.254
1584546407.626,14.648,30.273,28.809,22.461,70.801
1584546407.630,26.855,30.762,24.902,-8.301,10.742
1584546407.634,26.855,32.715,24.414,3.906,-5.859
1584546407.638,10.742,33.203,27.344,35.156,23.926
1584546407.642,9.766,34.180,27.832,35.156,35.645
1584546407.645,23.926,32.715,25.879,0.977,8.301
1584546407.649,26.855,28.809,24.414,-1.465,88.379
1584546407.653,14.160,29.785,28.320,32.715,87.891
1584546407.657,10.254,30.273,30.273,41.016,60.059
1584546407.661,26.367,28.320,29.297,8.301,82.031
1584546407.665,37.109,28.809,28.809,-0.488,28.320
1584546407.669,24.414,30.762,29.785,31.250,40.039
1584546407.673,11.719,33.203,28.809,44.434,27.832
1584546407.677,15.137,32.227,25.879,14.160,13.672
1584546407.681,27.344,30.273,24.902,-12.695,104.980
1584546407.685,30.762,33.691,26.855,18.066,59.082
1584546407.688,20.020,34.180,27.832,52.246,23.438
1584546407.692,18.066,31.738,29.297,31.738,41.016
1584546407.696,31.738,33.203,30.762,1.953,28.320
1584546407.700,29.785,33.203,31.738,11.230,47.852
1584546407.704,17.090,32.227,31.738,43.945,46.875
1584546407.708,14.648,33.691,32.227,42.969,-4.883
1584546407.712,24.902,32.715,32.227,2.930,-19.531
1584546407.716,30.762,32.715,29.297,0.488,2.441
1584546407.720,19.043,33.691,26.367,35.645,38.086
1584546407.724,6.348,30.273,28.320,33.203,55.664
1584546407.728,13.672,28.809,30.762,-0.488,22.461
1584546407.731,29.785,29.297,27.344,-3.418,-9.277
1584546407.735,26.367,28.809,26.855,29.785,-20.996
1584546407.739,18.555,32.227,28.809,49.805,8.301
1584546407.743,24.902,32.715,25.391,20.508,44.922
1584546407.747,35.156,30.762,22.949,-2.441,52.734
1584546407.751,31.250,29.297,28.809,18.066,46.387
1584546407.755,14.160,27.832,33.691,44.922,-18.555
1584546407.759,12.207,29.785,33.691,31.250,14.160
1584546407.763,34.668,30.273,29.785,2.930,34.668
1584546407.767,41.992,28.320,29.785,13.184,36.621
1584546407.770,23.926,31.250,30.273,44.434,2.441
1584546407.774,13.672,32.715,28.320,44.434,-35.156
1584546407.778,28.320,29.785,27.344,11.230,-13.184
1584546407.782,41.504,29.785,30.273,6.836,-25.879
1584546407.786,31.250,32.227,34.180,40.527,-13.184
1584546407.790,21.484,33.691,35.156,53.711,69.824
1584546407.794,30.762,32.227,33.691,23.438,78.125
1584546407.798,42.480,28.320,31.250,0.977,25.879
1584546407.802,40.527,28.809,32.715,27.832,67.871
1584546407.806,28.809,29.785,33.691,54.199,55.664
1584546407.810,27.344,27.832,32.715,29.297,-1.465
1584546407.813,36.621,27.344,29.297,-7.812,29.297
1584546407.817,29.785,29.297,26.855,0.977,11.719
1584546407.821,13.672,32.715,28.809,34.180,-19.043
1584546407.825,12.695,31.738,30.273,28.320,0.977
1584546407.829,30.273,27.344,28.809,5.859,36.621
1584546407.833,42.480,26.855,28.320,16.602,27.832
1584546407.837,34.180,28.809,31.738,48.828,43.457
1584546407.841,21.973,29.785,33.691,49.805,1.953
1584546407.845,26.855,31.738,30.273,11.230,-37.598
1584546407.849,31.250,32.715,26.367,-3.418,3.418
1584546407.853,16.602,32.715,24.902,20.508,16.113
1584546407.856,13.184,35.156,25.879,36.621,62.012
1584546407.860,29.297,33.203,25.391,13.672,62.500
1584546407.864,40.527,29.785,24.902,0.000,1.953
1584546407.868,33.691,30.273,26.855,28.320,27.344
1584546407.872,20.996,29.297,26.367,51.758,71.289
1584546407.876,23.926,29.785,23.926,30.762,53.223
1584546407.880,35.645,28.320,23.926,-1.465,41.016
1584546407.884,28.809,26.367,24.902,7.324,-12.207
1584546407.888,6.348,30.762,24.414,27.832,-40.039
1584546407.892,4.395,32.227,24.414,22.949,12.207
1584546407.895,24.414,28.320,26.855,0.000,56.152
1584546407.899,36.133,28.809,31.250,9.277,63.965
1584546407.903,21.484,33.691,32.227,41.504,25.879
1584546407.907,10.254,34.668,31.738,39.551,-4.883
1584546407.911,25.391,33.203,30.762,10.254,1.465
1584546407.915,37.109,31.738,28.320,3.906,3.418
1584546407.919,23.438,31.738,31.738,25.391,11.230
1584546407.923,8.301,34.180,33.691,39.062,41.504
1584546407.927,16.602,35.156,34.668,19.531,43.457
1584546407.931,31.738,31.738,34.180,-2.441,-12.695
1584546407.935,29.785,29.297,32.715,17.578,-35.645
1584546407.938,13.184,29.785,34.668,45.410,26.855
1584546407.942,12.207,29.785,32.227,24.902,42.969
1584546407.946,32.227,28.809,29.785,-4.883,-13.672
1584546407.950,33.691,29.297,27.344,6.348,-44.434
1584546407.954,8.789,31.738,27.344,31.738,-18.555
1584546407.958,1.953,31.250,30.273,26.855,7.324
1584546407.962,19.531,27.344,28.809,-3.418,45.410
1584546407.966,25.391,25.391,29.297,-5.371,88.379
1584546407.970,13.672,30.273,33.203,32.227,89.355
1584546407.974,4.395,28.320,34.668,45.410,107.910
1584546407.978,10.254,24.414,30.762,11.719,97.656
1584546407.981,21.973,25.879,25.391,-4.883,54.199
1584546407.985,16.113,28.809,21.973,16.602,-8.301
1584546407.989,7.324,33.203,22.461,39.062,2.930
1584546407.993,17.090,33.691,23.438,19.043,44.922
1584546407.997,31.738,31.738,22.461,-6.836,40.527
1584546408.001,30.273,30.762,25.879,19.043,55.664
1584546408.005,22.461,31.250,30.762,55.176,81.055
1584546408.009,22.461,30.273,32.227,35.156,53.711
1584546408.013,29.785,28.809,29.785,-5.859,73.242
1584546408.017,28.320,27.344,25.879,-1.953,59.082
1584546408.020,20.508,27.344,27.832,42.480,-20.996
1584546408.024,21.484,28.809,32.227,51.758,-10.742
1584546408.028,29.785,29.297,30.762,6.836,-9.277
1584546408.032,37.109,33.203,24.902,-1.953,25.391
1584546408.036,28.809,36.133,26.367,31.738,35.156
1584546408.040,19.531,36.621,27.344,44.434,36.133
1584546408.044,31.250,32.715,26.855,18.555,44.922
1584546408.048,41.992,27.832,28.320,1.465,43.457
1584546408.052,33.203,29.297,27.832,20.508,25.391
1584546408.056,14.648,33.691,29.297,40.527,20.020
1584546408.060,19.043,34.180,28.809,24.414,0.488
1584546408.063,45.898,32.715,26.367,2.930,-43.945
1584546408.067,45.898,32.227,28.320,22.461,-11.719
1584546408.071,22.461,33.203,28.320,47.852,-29.785
1584546408.075,20.996,33.691,28.320,33.691,-11.719
1584546408.079,39.062,32.227,26.855,7.324,78.125
1584546408.083,42.480,32.227,25.879,14.160,34.180
1584546408.087,32.227,36.621,27.832,42.969,-0.977
1584546408.091,28.320,37.598,27.832,47.852,53.711
1584546408.095,33.691,30.762,28.809,13.672,48.828
1584546408.099,39.551,27.344,30.273,-2.930,33.691
1584546408.103,28.809,31.738,33.203,27.832,-0.977
1584546408.106,14.648,34.668,34.180,44.434,-1.953
1584546408.110,18.066,31.250,29.785,14.160,-16.113
1584546408.114,30.273,27.344,28.809,-2.441,-7.324
1584546408.118,28.320,27.344,27.344,22.461,34.668
1584546408.122,20.020,30.762,29.785,47.363,54.199
1584546408.126,19.531,28.809,29.785,24.414,102.539
1584546408.130,29.297,23.926,25.879,-7.812,-0.488
1584546408.134,29.297,24.902,26.367,9.766,8.301
1584546408.138,18.066,28.320,25.879,44.434,60.547
1584546408.142,15.137,26.855,27.832,34.180,-2.441
1584546408.145,25.391,24.414,29.297,-1.465,22.949
1584546408.149,26.855,26.367,29.785,8.301,36.133
1584546408.153,14.648,28.320,29.297,41.504,41.016
1584546408.157,12.207,29.297,27.344,41.504,13.672
1584546408.161,27.832,30.273,25.391,15.137,6.836
1584546408.165,37.598,30.273,25.879,6.836,52.734
1584546408.169,21.484,26.855,29.785,28.809,42.480
1584546408.173,4.883,24.414,33.203,39.062,-4.395
1584546408.177,10.742,25.391,31.738,8.789,25.391
1584546408.181,32.227,23.438,32.715,0.000,74.219
1584546408.185,32.227,20.996,34.668,34.668,16.602
1584546408.188,11.719,20.508,35.156,48.828,20.508
1584546408.192,7.324,22.949,33.203,20.508,43.945
1584546408.196,19.043,24.902,28.320,-4.395,-26.367
1584546408.200,20.020,21.973,28.809,13.184,8.301
1584546408.204,12.207,21.973,31.738,43.457,0.977
1584546408.208,11.719,25.391,34.668,37.109,-31.250
1584546408.212,24.902,25.391,33.691,8.789,17.578
1584546408.216,35.156,24.902,33.203,8.301,31.250
1584546408.220,26.855,28.809,33.691,37.109,51.270
1584546408.224,21.484,33.203,32.715,47.363,7.324
1584546408.228,30.762,31.738,29.297,18.555,-62.988
1584546408.231,43.457,27.344,28.320,6.836,-52.734
1584546408.235,35.645,28.809,32.715,33.691,-15.625
1584546408.239,20.020,31.250,34.668,50.293,-6.348
1584546408.243,28.320,30.762,29.785,25.879,14.160
1584546408.247,44.434,30.273,21.973,-2.441,24.902
1584546408.251,40.039,30.762,23.438,16.602,12.695
1584546408.255,22.461,29.297,31.250,49.316,-22.461
1584546408.259,21.973,27.344,32.227,40.039,0.977
1584546408.263,36.621,29.785,29.297,9.766,-8.301
1584546408.267,41.504,33.203,29.297,19.531,-53.711
1584546408.270,27.832,34.668,32.715,55.176,-1.465
1584546408.274,23.926,34.668,38.086,57.129,72.754
1584546408.278,38.574,33.691,38.574,21.973,37.598
1584546408.282,37.598,31.250,36.133,4.883,17.090
1584546408.286,19.043,29.297,38.574,33.203,52.734
1584546408.290,15.137,29.785,37.109,49.805,60.059
1584546408.294,31.250,30.273,30.762,20.020,14.160
1584546408.298,45.410,30.273,32.715,5.859,64.941
1584546408.302,38.574,26.367,35.156,35.645,89.355
1584546408.306,17.578,24.414,32.227,51.758,30.762
1584546408.310,18.066,24.902,29.297,22.461,39.551
1584546408.313,39.551,25.391,29.785,0.488,62.500
1584546408.317,40.039,26.855,30.762,26.855,-9.766
1584546408.321,19.531,29.297,27.832,52.246,2.441
1584546408.325,9.766,28.809,29.297,29.297,5.859
1584546408.329,18.555,24.902,30.762,-3.418,33.691
1584546408.333,27.344,21.973,31.250,11.230,67.383
1584546408.337,19.043,21.973,36.133,42.969,47.363
1584546408.341,13.672,24.414,39.062,39.551,42.969
1584546408.345,25.391,25.391,37.109,8.789,-16.113
1584546408.349,37.598,25.879,36.133,2.441,26.367
1584546408.353,31.250,25.391,34.668,35.645,51.270
1584546408.356,15.625,27.832,32.715,50.293,-13.672
1584546408.360,16.113,28.320,31.250,16.602,6.348
1584546408.364,23.926,23.926,29.785,-9.277,29.785
1584546408.368,20.020,25.879,32.227,15.625,62.012
1584546408.372,6.836,28.809,34.668,45.410,42.480
1584546408.376,9.766,32.715,31.738,24.902,18.066
1584546408.380,28.320,34.180,29.297,-2.930,21.973
1584546408.384,27.344,28.320,29.297,9.766,2.441
1584546408.388,9.766,28.320,32.715,41.016,14.160
1584546408.392,8.789,32.227,34.180,35.645,20.508
1584546408.395,22.949,31.738,27.832,0.000,21.973
1584546408.399,28.809,30.273,28.320,-0.488,-33.691
1584546408.403,14.648,32.227,30.762,32.227,-2.441
1584546408.407,6.348,31.250,29.785,36.621,46.875
1584546408.411,21.973,27.832,30.273,4.883,-7.324
1584546408.415,37.598,26.367,33.203,1.465,16.602
1584546408.419,26.855,27.344,32.715,28.809,43.945
1584546408.423,15.137,30.273,29.297,41.992,27.832
1584546408.427,32.227,28.809,27.832,22.949,79.590
1584546408.431,45.898,27.832,28.809,-0.488,78.125
1584546408.435,35.156,32.227,31.250,17.578,0.000
1584546408.438,19.043,33.203,32.715,44.434,14.648
1584546408.442,15.625,30.273,33.203,28.809,39.062
1584546408.446,27.832,25.879,31.738,0.488,56.641
1584546408.450,35.645,24.414,33.203,14.160,69.336
1584546408.454,20.508,28.320,37.109,48.828,29.297
1584546408.458,8.789,28.809,35.645,40.039,-29.297
1584546408.462,22.461,26.855,32.227,5.859,-20.508
1584546408.466,39.062,23.926,35.156,10.254,9.766
1584546408.470,29.297,25.879,38.574,40.527,-12.207
1584546408.474,10.254,29.785,33.203,28.809,20.020
1584546408.478,15.625,29.297,26.367,-7.812,41.992
1584546408.481,39.551,29.785,25.391,-8.789,55.176
1584546408.485,30.762,29.297,27.832,20.996,92.773
1584546408.489,10.254,29.297,28.320,43.945,72.266
1584546408.493,19.043,30.762,28.320,19.531,3.418
1584546408.497,36.133,26.367,29.297,-2.930,12.695
1584546408.501,33.203,23.926,27.344,10.742,48.340
1584546408.505,14.160,29.297,26.855,31.738,57.129
1584546408.509,8.789,29.785,26.855,18.555,46.387
1584546408.513,24.902,27.344,24.902,-6.836,-20.996
1584546408.517,34.668,26.855,25.879,6.836,-6.836
1584546408.520,19.043,28.320,27.344,36.133,16.113
1584546408.524,13.672,29.785,30.273,35.645,30.273
1584546408.528,31.738,25.391,32.227,12.695,14.648
1584546408.532,44.434,23.438,32.715,18.555,36.621
1584546408.536,27.832,27.344,32.715,45.898,65.430
1584546408.540,7.812,31.250,32.715,40.527,35.156
1584546408.544,11.719,29.785,30.273,5.859,63.477
1584546408.548,9.766,27.832,28.809,-8.301,63.965
1584546408.552,17.578,29.297,31.738,27.832,-22.949
1584546408.556,25.879,28.809,35.156,57.617,-53.223
1584546408.560,23.438,26.367,33.203,36.133,27.344
1584546408.563,37.109,27.344,26.367,4.883,26.367
1584546408.567,36.621,29.297,26.855,13.672,17.090
1584546408.571,25.391,32.227,30.762,46.875,-23.438
1584546408.575,25.391,34.668,29.785,38.574,-23.926
1584546408.579,36.621,32.227,29.297,9.766,42.480
1584546408.583,41.016,24.414,33.691,18.066,22.461
1584546408.587,27.344,24.902,36.621,51.270,45.898
1584546408.591,7.324,30.273,31.738,41.016,70.312
1584546408.595,17.578,29.785,26.367,-3.906,52.246
1584546408.599,35.645,31.250,27.832,-2.930,41.504
1584546408.603,22.461,33.691,32.227,41.016,68.848
1584546408.606,22.949,29.785,34.668,52.246,54.199
1584546408.610,41.016,26.367,33.203,20.020,-21.484
1584546408.614,44.922,26.367,32.227,14.160,-44.434
1584546408.618,36.621,24.414,30.762,33.691,9.277
1584546408.622,4.395,23.438,31.738,41.504,63.965
1584546408.626,2.930,25.391,30.762,21.484,76.660
1584546408.630,38.086,25.879,27.832,-2.930,71.777
1584546408.634,33.691,26.855,32.227,13.672,58.105
1584546408.638,12.695,26.855,35.156,44.434,-2.930
1584546408.642,10.742,24.902,35.645,39.551,-38.574
1584546408.645,30.762,23.926,34.180,8.789,-2.930
1584546408.649,31.738,23.438,31.250,8.301,11.230
1584546408.653,10.254,25.879,30.762,38.574,40.039
1584546408.657,6.348,29.297,29.785,44.922,22.949
1584546408.661,20.020,27.832,28.809,10.254,-1.465
1584546408.665,30.273,24.414,29.785,0.488,2.441
1584546408.669,22.461,21.973,31.250,27.344,6.348
1584546408.673,12.695,24.902,31.738,44.922,20.020
1584546408.677,23.438,28.320,31.250,23.438,30.762
1584546408.681,36.621,27.344,30.762,-1.953,42.480
1584546408.685,25.879,28.809,31.250,11.230,71.777
1584546408.688,8.301,32.715,28.320,35.645,48.828
1584546408.692,17.090,34.180,25.879,30.762,27.832
1584546408.696,38.086,34.668,26.367,7.324,32.715
1584546408.700,37.598,34.180,28.809,14.160,33.691
1584546408.704,19.043,31.250,33.203,44.922,48.340
1584546408.708,9.277,30.273,33.203,30.273,27.832
1584546408.712,21.973,28.809,28.320,-9.766,27.344
1584546408.716,29.297,28.320,28.809,-6.348,35.645
1584546408.720,20.996,34.180,31.250,33.691,28.809
1584546408.724,20.508,33.691,33.691,57.129,61.035
1584546408.728,26.367,27.344,31.738,25.879,60.059
1584546408.731,25.391,25.391,27.344,-2.930,61.523
1584546408.735,13.672,27.344,28.320,16.113,33.203
1584546408.739,9.277,29.297,26.367,36.621,-21.484
1584546408.743,24.902,28.320,23.438,16.113,-20.020
1584546408.747,41.016,27.832,23.926,-3.418,-5.371
1584546408.751,35.156,28.809,28.320,22.949,42.969
1584546408.755,18.555,31.250,28.809,44.922,37.598
1584546408.759,16.113,31.738,23.926,20.020,82.520
1584546408.763,37.109,30.273,22.949,-2.441,59.082
1584546408.767,43.457,29.785,25.391,21.484,15.625
1584546408.770,22.949,28.809,28.320,48.340,24.414
1584546408.774,13.672,27.832,31.250,37.109,-12.207
1584546408.778,20.508,25.391,31.738,0.000,33.691
1584546408.782,29.297,21.973,30.273,-9.766,50.293
1584546408.786,17.090,20.020,34.180,28.320,22.461
1584546408.790,4.883,20.020,38.574,42.969,12.207
1584546408.794,25.879,22.461,33.691,9.766,-7.324
1584546408.798,41.016,25.391,27.344,-1.465,17.090
1584546408.802,28.320,26.855,29.297,25.391,-20.508
1584546408.806,13.184,28.320,32.227,42.969,-29.785
1584546408.810,19.043,29.785,33.691,21.973,-12.695
1584546408.813,38.574,26.855,34.180,6.348,-1.953
1584546408.817,38.574,26.367,34.668,32.227,11.230
1584546408.821,20.508,28.809,34.180,58.594,3.418
1584546408.825,9.766,30.273,31.738,37.598,47.852
1584546408.829,20.996,29.785,30.273,0.488,55.664
1584546408.833,31.250,31.250,27.832,8.301,28.809
1584546408.837,17.578,34.668,26.855,37.109,36.621
1584546408.841,11.719,32.715,28.809,30.762,36.133
1584546408.845,25.391,28.809,30.273,6.348,18.066
1584546408.849,37.109,29.785,31.738,5.859,13.672
1584546408.853,23.926,30.273,33.203,37.109,47.363
1584546408.856,3.906,29.785,33.691,45.410,51.270
1584546408.860,6.836,27.832,28.320,3.906,44.434
1584546408.864,18.555,25.391,23.438,-12.207,39.551
1584546408.868,16.113,28.320,24.902,14.160,52.246
1584546408.872,9.766,31.250,28.320,40.527,22.461
1584546408.876,23.926,29.785,31.738,34.180,39.551
1584546408.880,40.039,28.320,32.227,6.836,63.477
1584546408.884,30.762,28.320,32.227,17.578,23.926
1584546408.888,9.766,29.297,31.250,43.457,46.387
1584546408.892,2.930,32.227,28.320,23.926,14.160
1584546408.895,18.066,29.297,26.367,-8.789,21.973
1584546408.899,26.367,28.320,28.809,3.418,72.266
1584546408.903,20.020,29.785,32.715,45.898,54.688
1584546408.907,19.043,28.809,30.762,54.199,-1.465
1584546408.911,29.297,29.785,27.344,20.996,7.324
1584546408.915,32.715,34.668,24.414,-2.930,4.883
1584546408.919,18.066,35.156,23.926,16.113,-22.461
1584546408.923,9.766,34.668,27.832,40.527,23.438
1584546408.927,22.949,34.180,28.320,20.508,50.781
1584546408.931,36.621,32.715,24.902,5.371,32.227
1584546408.935,28.809,29.785,27.344,33.203,20.996
1584546408.938,2.930,24.902,32.227,44.434,2.441
1584546408.942,-8.301,26.855,28.320,4.395,25.879
1584546408.946,5.859,30.762,21.973,-27.344,41.992
1584546408.950,17.090,27.344,21.973,-5.371,1.953
1584546408.954,10.742,26.855,25.879,36.133,43.945
1584546408.958,6.836,26.855,31.738,36.621,68.848
1584546408.962,21.973,22.949,34.668,4.395,27.832
1584546408.966,23.438,24.414,29.785,-0.488,9.766
1584546408.970,3.418,28.320,25.391,22.461,28.809
1584546408.974,7.812,32.715,27.344,33.203,11.230
1584546408.978,33.203,31.250,28.320,14.648,-2.930
1584546408.981,44.922,26.855,29.785,6.348,30.273
1584546408.985,39.551,23.438,32.227,40.039,22.461
1584546408.989,23.438,23.926,31.250,58.105,18.555
1584546408.993,18.555,29.297,29.785,20.996,42.969
1584546408.997,27.344,26.855,27.832,-12.207,62.988
1584546409.001,24.902,25.391,27.832,6.348,16.602
1584546409.005,14.160,28.320,30.273,42.969,-17.578
1584546409.009,17.090,28.320,30.273,30.762,49.316
1584546409.013,32.715,27.344,27.344,3.418,52.734
1584546409.017,37.109,23.926,29.297,18.066,11.230
1584546409.020,23.438,23.438,36.621,48.828,31.250
1584546409.024,14.160,24.902,34.180,40.527,3.418
1584546409.028,22.949,25.391,25.879,-4.395,0.488
1584546409.032,21.484,22.949,24.414,-14.160,62.012
1584546409.036,6.836,22.949,23.926,16.602,75.195
1584546409.040,4.395,23.926,23.438,30.273,39.062
1584546409.044,23.438,25.391,24.902,9.766,35.156
1584546409.048,40.527,24.902,27.832,8.301,12.695
1584546409.052,30.762,26.367,29.785,33.203,2.930
1584546409.056,11.230,30.273,26.367,39.551,27.344
1584546409.060,12.207,29.785,23.926,14.648,63.477
1584546409.063,34.668,29.297,25.391,-3.906,77.637
1584546409.067,43.457,28.320,28.809,24.414,65.918
1584546409.071,27.832,27.344,31.738,56.152,23.926
1584546409.075,17.090,26.855,30.273,41.016,1.465
1584546409.079,28.320,23.926,29.785,5.859,14.160
1584546409.083,27.832,21.973,31.738,10.742,2.441
1584546409.087,6.348,18.555,34.180,31.250,2.441
1584546409.091,3.418,20.508,36.621,28.809,-5.859
1584546409.095,22.949,25.391,33.691,7.812,-4.395
1584546409.099,33.691,25.391,33.691,3.906,-45.898
1584546409.103,22.461,24.902,38.574,33.203,-6.836
1584546409.106,11.230,29.297,39.062,49.316,87.402
1584546409.110,12.207,29.297,31.738,10.254,62.988
1584546409.114,22.461,26.367,26.367,-14.648,-5.859
1584546409.118,20.996,27.832,26.855,16.113,-21.484
1584546409.122,11.230,28.809,31.250,48.340,-4.395
1584546409.126,22.461,27.344,33.691,33.203,14.648
1584546409.130,39.551,23.438,36.133,5.859,62.988
1584546409.134,26.367,26.367,33.691,11.719,73.242
1584546409.138,3.906,31.250,31.250,33.203,31.250
1584546409.142,11.719,30.762,32.715,39.062,-0.488
1584546409.145,40.527,28.320,32.227,22.461,35.156
1584546409.149,45.898,26.367,33.691,21.484,61.523
1584546409.153,24.902,26.367,33.203,42.480,17.578
1584546409.157,17.578,30.762,30.762,40.527,-3.906
1584546409.161,25.879,31.738,27.344,1.953,12.207
1584546409.165,32.715,28.809,23.926,-11.230,32.227
1584546409.169,29.785,31.250,27.344,29.785,39.062
1584546409.173,21.973,33.203,29.297,52.246,30.273
1584546409.177,24.414,29.785,27.344,16.113,5.859
1584546409.181,34.668,26.855,25.879,-16.602,3.906
1584546409.185,26.855,29.785,25.391,8.301,-8.789
1584546409.188,13.184,32.227,29.785,42.480,-18.066
1584546409.192,16.113,30.762,30.273,16.602,26.855
1584546409.196,29.297,25.879,30.762,-12.695,78.125
1584546409.200,28.320,24.902,32.227,10.254,43.945
1584546409.204,15.137,24.902,31.738,42.480,16.113
1584546409.208,11.719,25.879,31.250,32.715,40.039
1584546409.212,28.809,26.855,29.785,0.977,27.344
1584546409.216,37.109,27.832,28.809,0.000,12.695
1584546409.220,16.602,31.250,30.273,29.297,0.488
1584546409.224,10.742,30.273,29.785,30.762,-20.020
1584546409.228,28.809,27.832,30.273,6.348,34.180
1584546409.231,37.109,25.879,32.227,8.301,82.031
1584546409.235,22.461,25.391,31.250,35.156,67.383
1584546409.239,6.348,27.832,33.691,51.270,64.941
1584546409.243,12.207,28.320,33.691,23.438,41.504
1584546409.247,24.902,27.344,28.809,-10.254,1.465
1584546409.251,23.926,29.785,26.367,8.301,40.527
1584546409.255,8.301,32.715,30.762,38.574,34.668
1584546409.259,6.348,29.785,30.762,22.949,15.625
1584546409.263,29.297,25.391,27.344,3.418,15.137
1584546409.267,39.551,23.438,29.297,21.973,7.812
1584546409.270,24.414,24.902,32.715,40.039,54.199
1584546409.274,10.742,27.344,32.227,26.855,70.312
1584546409.278,23.438,28.320,27.832,-1.953,43.945
1584546409.282,34.180,27.832,29.785,0.000,-25.391
1584546409.286,16.113,30.273,32.227,31.250,-29.297
1584546409.290,4.883,31.738,31.738,36.133,28.320
1584546409.294,18.066,30.762,28.809,0.488,41.992
1584546409.298,30.273,31.738,24.902,-9.766,-8.301
1584546409.302,27.832,32.715,27.344,24.902,1.465
1584546409.306,22.461,33.203,31.250,47.852,34.180
1584546409.310,28.809,28.809,30.273,28.809,12.695
1584546409.313,37.109,24.902,28.320,3.906,-7.324
1584546409.317,33.203,27.344,28.320,18.555,32.715
1584546409.321,21.973,28.809,31.738,48.828,-13.184
1584546409.325,18.066,28.809,33.203,34.668,4.883
1584546409.329,27.344,26.367,28.809,-3.418,28.809
1584546409.333,33.203,27.344,24.902,5.859,-9.277
1584546409.337,16.602,29.297,26.855,40.039,60.547
1584546409.341,11.230,27.344,29.785,41.992,56.152
1584546409.345,32.227,24.902,30.762,17.578,20.020
1584546409.349,42.969,26.367,29.297,11.719,58.594
1584546409.353,28.809,30.273,27.832,33.691,109.375
1584546409.356,13.672,31.250,28.320,37.598,41.016
1584546409.360,19.043,28.320,26.855,7.812,-17.090
1584546409.364,33.691,27.344,27.832,-1.953,51.758
1584546409.368,26.367,28.320,28.809,22.949,96.191
1584546409.372,7.324,29.297,27.832,33.691,48.828
1584546409.376,11.719,29.297,27.832,13.672,-16.602
1584546409.380,31.738,27.832,28.320,-7.812,5.859
1584546409.384,32.227,26.367,30.762,9.766,27.344
1584546409.388,15.137,30.273,33.203,34.180,4.883
1584546409.392,7.324,32.715,32.227,16.113,34.180
1584546409.395,23.438,29.785,28.809,-9.766,20.996
1584546409.399,40.527,32.227,31.250,9.277,36.133
1584546409.403,30.762,32.227,34.668,45.410,71.777
1584546409.407,11.719,28.320,34.180,35.645,30.762
1584546409.411,18.555,25.879,33.203,2.441,-35.645
1584546409.415,33.691,23.438,29.297,-1.953,-17.578
1584546409.419,23.438,26.367,27.344,25.391,30.273
1584546409.423,11.719,33.203,29.785,42.969,8.789
1584546409.427,20.996,32.227,29.297,18.555,-11.230
1584546409.431,36.621,26.367,31.250,1.953,-41.992
1584546409.435,33.203,24.902,35.156,28.809,21.973
1584546409.438,12.207,28.320,32.715,46.875,39.062
1584546409.442,9.766,29.297,28.320,18.066,4.395
1584546409.446,28.320,27.832,26.367,-11.230,45.898
1584546409.450,29.785,29.297,27.344,2.930,65.430
1584546409.454,13.672,32.227,28.320,32.715,45.898
1584546409.458,13.184,32.715,26.367,22.949,18.555
1584546409.462,28.809,29.785,24.902,-8.301,41.992
1584546409.466,41.016,29.785,25.879,-1.465,46.387
1584546409.470,28.809,33.691,28.809,39.062,39.551
1584546409.474,23.926,33.203,30.762,48.340,53.223
1584546409.478,46.875,32.227,30.273,14.160,9.766
1584546409.481,50.293,33.691,34.180,9.277,14.648
1584546409.485,27.832,35.156,34.668,38.574,45.898
1584546409.489,11.230,36.133,30.762,45.898,21.973
1584546409.493,17.578,35.645,30.273,15.625,2.930
1584546409.497,34.668,35.645,28.320,-2.930,2.441
1584546409.501,25.391,34.668,27.832,18.066,30.762
1584546409.505,9.277,36.133,29.297,40.039,4.883
1584546409.509,15.625,35.645,27.344,21.973,50.781
1584546409.513,32.227,32.227,25.391,0.977,62.012
1584546409.517,35.645,31.738,26.367,20.020,4.883
1584546409.520,19.531,29.785,29.297,51.758,31.250
1584546409.524,14.648,30.273,31.738,44.434,48.340
1584546409.528,35.156,29.297,31.250,16.113,42.480
1584546409.532,41.992,27.832,27.832,18.555,83.984
1584546409.536,18.555,29.785,25.879,36.621,77.637
1584546409.540,5.859,31.250,25.391,36.621,72.754
1584546409.544,24.414,30.762,22.461,8.301,87.402
1584546409.548,43.945,29.297,21.973,4.395,26.367
1584546409.552,38.574,26.855,29.297,37.598,6.348
1584546409.556,20.996,27.832,33.691,50.293,-0.977
1584546409.560,18.555,32.227,28.809,20.020,41.992
1584546409.563,31.738,33.691,25.391,-7.812,35.156
1584546409.567,32.715,33.691,26.367,14.160,-38.086
1584546409.571,21.484,32.715,29.297,51.270,-2.930
1584546409.575,19.531,31.250,31.738,43.457,41.016
1584546409.579,31.250,29.785,29.785,11.230,41.504
1584546409.583,31.738,28.809,26.855,15.137,66.406
1584546409.587,19.531,31.250,26.367,44.922,44.434
1584546409.591,18.066,31.250,28.809,44.434,5.859
1584546409.595,32.715,29.297,27.344,12.207,-16.113
1584546409.599,43.945,27.832,28.320,4.883,-2.930
1584546409.603,25.879,30.762,33.691,31.250,84.961
1584546409.606,11.719,33.203,32.715,41.992,31.250
1584546409.610,23.438,30.273,27.344,6.348,20.020
1584546409.614,32.715,28.320,24.414,-10.742,46.387
1584546409.618,28.320,30.762,27.344,28.320,-11.719
1584546409.622,22.461,32.227,31.738,59.570,-15.137
1584546409.626,21.484,30.762,31.250,27.832,-12.207
1584546409.630,20.996,31.250,25.879,-20.020,3.906
1584546409.634,20.508,34.668,24.414,-6.348,24.902
1584546409.638,7.812,35.645,26.367,29.785,9.277
1584546409.642,7.324,33.691,26.855,18.066,17.578
1584546409.645,29.785,32.715,27.832,-6.836,10.254
1584546409.649,42.969,33.691,31.738,18.066,16.113
1584546409.653,26.367,36.621,33.203,46.387,39.551
1584546409.657,5.371,36.621,28.809,22.949,41.992
1584546409.661,17.090,36.133,26.855,-12.207,67.871
1584546409.665,30.762,35.156,27.344,-8.789,63.477
1584546409.669,21.973,35.156,27.344,24.414,29.297
1584546409.673,16.113,37.109,25.879,43.457,29.785
1584546409.677,25.879,36.133,23.926,19.043,59.570
1584546409.681,36.133,32.715,22.949,-8.301,56.641
1584546409.685,23.438,29.297,25.879,7.812,24.414
1584546409.688,-1.465,30.762,26.367,20.020,31.250
1584546409.692,-0.977,31.738,24.414,-2.441,-6.348
1584546409.696,21.484,29.785,26.367,-15.625,28.320
1584546409.700,27.832,29.297,28.809,3.906,77.637
1584546409.704,2.441,29.785,27.344,25.879,58.594
1584546409.708,-2.930,29.297,24.902,14.648,36.133
1584546409.712,25.391,29.297,26.367,-6.348,16.602
1584546409.716,34.668,27.832,26.367,8.301,-5.859
1584546409.720,22.949,31.250,29.297,46.875,7.812
1584546409.724,10.254,32.227,31.250,45.410,-35.645
1584546409.728,10.742,28.320,26.855,0.000,-48.340
1584546409.731,18.555,24.902,21.973,-19.043,-0.977
1584546409.735,16.113,26.855,23.438,12.695,55.664
1584546409.739,9.277,31.738,28.809,40.527,69.824
1584546409.743,14.648,30.273,28.320,18.066,6.836
1584546409.747,26.367,28.809,27.832,-8.301,-11.230
1584546409.751,19.531,31.738,28.809,12.695,-4.883
1584546409.755,0.977,35.156,30.762,40.039,-5.371
1584546409.759,4.395,32.715,34.180,25.391,5.371
1584546409.763,23.438,27.832,31.738,-3.418,40.039
1584546409.767,20.508,27.832,31.250,8.301,47.363
1584546409.770,8.301,30.762,35.645,43.457,-19.531
1584546409.774,10.742,28.320,35.156,36.621,-15.137
1584546409.778,22.949,24.414,32.227,-2.441,26.367
1584546409.782,28.809,22.461,31.738,-1.465,-2.930
1584546409.786,14.648,25.879,32.715,35.645,-10.742
1584546409.790,2.930,32.227,30.273,36.621,54.688
1584546409.794,15.137,29.785,25.879,-0.488,57.617
1584546409.798,34.668,30.762,27.832,-10.254,31.738
1584546409.802,32.227,36.621,31.250,25.391,49.805
1584546409.806,24.902,38.086,31.250,46.875,51.270
1584546409.810,23.438,35.645,28.809,20.996,20.020
1584546409.813,24.414,31.250,24.902,-4.883,47.852
1584546409.817,23.926,29.297,27.344,15.625,52.246
1584546409.821,7.324,27.344,30.762,42.480,28.809
1584546409.825,5.859,24.414,30.273,23.438,33.691
1584546409.829,22.461,21.973,29.785,-7.324,2.930
1584546409.833,29.297,20.996,28.809,9.766,41.016
1584546409.837,17.090,23.926,27.344,33.691,60.059
1584546409.841,2.930,27.344,26.367,17.578,40.527
1584546409.845,14.160,26.367,29.297,-8.789,62.012
1584546409.849,26.855,26.367,29.785,-4.883,48.340
1584546409.853,18.066,29.785,28.809,26.855,2.930
1584546409.856,15.625,34.180,29.297,42.480,-30.273
1584546409.860,27.344,31.738,28.320,19.043,26.855
1584546409.864,34.668,24.902,29.297,0.000,54.688
1584546409.868,22.461,24.414,34.180,21.484,36.621
1584546409.872,-0.488,25.391,33.203,37.109,39.551
1584546409.876,4.883,22.461,29.297,18.066,-14.160
1584546409.880,33.203,20.996,29.785,1.465,-20.996
1584546409.884,36.621,24.902,30.762,15.625,21.484
1584546409.888,23.438,28.320,35.156,44.922,30.762
1584546409.892,20.020,29.297,36.133,40.039,0.977
1584546409.895,32.227,30.762,31.250,2.930,31.250
1584546409.899,41.016,32.227,28.809,12.207,109.863
1584546409.903,25.391,31.738,31.738,44.434,19.043
1584546409.907,17.578,30.273,35.156,43.457,-21.484
1584546409.911,28.809,27.832,30.762,13.672,1.953
1584546409.915,35.156,25.879,29.785,-0.977,-1.465
1584546409.919,25.879,24.902,33.203,29.297,17.578
1584546409.923,21.484,27.832,34.668,52.246,-13.672
1584546409.927,33.203,25.879,34.668,25.391,9.766
1584546409.931,43.945,21.973,34.180,7.812,26.367
1584546409.935,39.062,26.855,39.551,36.133,33.203
1584546409.938,18.555,29.297,37.598,53.223,33.203
1584546409.942,15.137,28.809,33.691,28.320,0.000
1584546409.946,31.738,29.785,34.668,0.977,2.441
1584546409.950,38.086,30.762,32.227,17.578,-24.902
1584546409.954,25.391,31.738,30.762,50.781,-46.875
1584546409.958,20.996,30.762,32.227,41.992,-31.250
1584546409.962,30.762,26.855,31.250,4.883,-15.625
1584546409.966,36.621,26.855,29.297,10.254,2.930
1584546409.970,24.414,30.273,32.227,45.898,59.570
1584546409.974,16.113,29.297,31.250,41.992,60.547
1584546409.978,29.785,26.367,27.344,10.254,14.648
1584546409.981,38.086,24.902,26.855,5.371,22.949
1584546409.985,22.949,25.879,28.320,28.809,7.812
1584546409.989,7.324,29.297,29.297,41.016,19.531
1584546409.993,15.625,28.809,29.785,15.137,59.570
1584546409.997,32.227,26.855,30.273,-1.953,45.410
1584546410.001,31.250,25.391,28.320,22.461,35.645
1584546410.005,14.648,26.855,29.297,47.363,42.969
1584546410.009,11.719,26.367,30.762,28.809,51.758
1584546410.013,24.902,20.996,28.809,-2.441,12.695
1584546410.017,32.715,20.020,28.809,8.789,-39.062
1584546410.020,23.438,25.391,28.809,37.598,-50.293
1584546410.024,9.766,29.785,29.297,31.738,-52.734
1584546410.028,15.137,28.320,26.855,0.977,13.184
1584546410.032,24.902,25.879,28.809,0.000,28.809
1584546410.036,20.996,26.855,34.180,34.180,21.484
1584546410.040,12.695,28.320,33.691,42.480,20.508
1584546410.044,23.926,27.832,32.227,8.789,-8.789
1584546410.048,35.645,26.367,32.715,-1.465,30.273
1584546410.052,26.367,28.320,33.691,29.297,49.805
1584546410.056,15.137,30.273,35.156,45.898,19.531
1584546410.060,23.438,27.832,33.691,17.090,24.902
1584546410.063,39.062,23.926,31.738,-10.742,24.414
1584546410.067,36.621,25.879,33.691,9.766,-11.719
1584546410.071,20.508,29.297,35.156,44.922,9.766
1584546410.075,16.113,26.367,33.691,30.273,-4.883
1584546410.079,37.598,24.414,30.762,-3.906,-10.742
1584546410.083,41.504,24.902,32.715,10.742,34.180
1584546410.087,22.461,25.879,36.621,48.340,9.766
1584546410.091,14.160,28.320,33.203,41.504,14.648
1584546410.095,24.902,29.297,28.809,6.836,62.012
1584546410.099,35.645,27.344,27.344,3.906,83.496
1584546410.103,30.273,30.273,29.297,39.551,38.086
1584546410.106,20.508,30.273,31.250,57.617,32.715
1584546410.110,24.414,27.344,28.320,21.973,49.316
1584546410.114,38.086,26.855,26.367,0.488,45.898
1584546410.118,32.715,29.785,31.250,31.250,45.410
1584546410.122,22.461,33.691,35.645,53.223,19.531
1584546410.126,22.461,33.691,31.250,16.602,25.879
1584546410.130,32.715,32.715,26.855,-7.324,74.219
1584546410.134,37.109,31.250,28.809,18.066,86.426
1584546410.138,17.090,30.273,32.227,46.387,44.922
1584546410.142,10.742,30.762,32.715,35.156,17.578
1584546410.145,29.785,29.297,30.273,6.836,19.531
1584546410.149,36.133,27.344,31.250,21.484,36.621
1584546410.153,25.879,27.344,31.250,51.270,66.895
1584546410.157,13.672,29.297,28.320,42.480,62.012
1584546410.161,16.113,27.344,28.320,2.441,-48.828
1584546410.165,31.738,25.879,27.832,-4.395,-36.133
1584546410.169,22.949,28.320,29.297,26.367,57.617
1584546410.173,4.883,30.762,32.715,39.551,38.574
1584546410.177,13.184,28.809,32.227,16.113,-1.465
1584546410.181,22.461,25.391,26.367,-7.324,-11.719
1584546410.185,18.066,22.949,27.344,11.719,-3.418
1584546410.188,6.348,21.484,31.738,39.551,18.066
1584546410.192,6.348,20.996,29.785,16.602,56.152
1584546410.196,24.414,20.508,28.320,-3.906,79.590
1584546410.200,27.832,21.484,27.344,12.207,34.668
1584546410.204,12.695,22.461,27.344,28.809,-47.852
1584546410.208,10.254,20.996,28.809,26.367,14.648
1584546410.212,34.180,19.531,32.227,1.953,26.367
1584546410.216,43.457,20.508,34.668,7.812,-11.719
1584546410.220,25.879,22.949,38.086,49.316,51.758
1584546410.224,18.066,24.902,38.574,48.828,29.785
1584546410.228,18.066,24.902,34.180,6.348,2.441
1584546410.231,26.367,24.902,33.691,-2.930,32.715
1584546410.235,25.879,24.902,39.062,32.227,40.039
1584546410.239,20.996,25.879,42.969,58.594,72.754
1584546410.243,34.668,25.879,41.992,33.203,65.918
1584546410.247,44.922,28.320,39.062,7.812,45.898
1584546410.251,39.062,30.273,39.062,30.762,37.109
1584546410.255,20.508,30.273,41.504,55.176,19.531
1584546410.259,20.020,29.297,39.551,24.902,7.324
1584546410.263,38.086,29.297,35.645,-5.859,-60.059
1584546410.267,45.898,32.227,36.133,23.438,-23.926
1584546410.270,33.203,34.668,38.086,56.152,65.918
1584546410.274,28.809,33.203,40.039,50.781,29.297
1584546410.278,31.738,27.832,41.016,19.043,31.250
1584546410.282,27.832,25.391,39.062,3.906,2.930
1584546410.286,17.090,27.344,38.086,30.273,-6.836
1584546410.290,9.277,27.344,36.621,39.551,31.250
1584546410.294,29.785,26.855,34.668,15.625,43.457
1584546410.298,49.316,28.320,33.691,13.184,22.461
1584546410.302,33.203,26.855,33.203,31.738,7.324
1584546410.306,6.348,26.855,31.738,38.086,23.926
1584546410.310,18.066,26.855,28.809,11.719,6.348
1584546410.313,37.598,23.438,30.762,-9.277,19.531
1584546410.317,22.949,23.438,32.715,14.648,-3.418
1584546410.321,10.254,27.344,34.180,41.504,32.715
1584546410.325,15.137,25.879,32.715,24.414,69.336
1584546410.329,29.297,20.996,30.273,-7.812,48.340
1584546410.333,32.227,20.020,31.738,0.488,53.711
1584546410.337,19.043,22.461,32.227,34.668,37.109
1584546410.341,9.277,23.926,32.715,32.227,5.859
1584546410.345,23.926,22.949,32.715,4.395,14.648
1584546410.349,42.480,21.484,34.668,2.441,4.883
1584546410.353,20.996,21.484,35.645,23.926,9.766
1584546410.356,-3.418,24.902,33.691,33.691,20.508
1584546410.360,15.137,24.414,31.738,7.812,-33.203
1584546410.364,35.156,21.484,32.227,2.441,-48.340
1584546410.368,22.949,21.973,36.621,35.645,-25.391
1584546410.372,0.977,24.902,36.133,46.875,-7.324
1584546410.376,5.371,25.391,32.227,17.578,36.621
1584546410.380,26.367,22.949,30.273,-9.766,41.504
1584546410.384,30.762,23.438,33.203,5.859,20.508
1584546410.388,16.602,24.414,35.156,41.504,34.668
1584546410.392,12.207,20.996,32.715,34.668,59.082
1584546410.395,30.273,20.020,31.250,-2.930,23.926
1584546410.399,28.809,21.973,31.250,-1.465,-12.695
1584546410.403,6.836,25.391,34.180,29.785,34.180
1584546410.407,7.812,25.879,37.598,32.715,63.477
1584546410.411,33.691,24.414,34.668,5.859,39.551
1584546410.415,45.410,23.926,29.785,0.000,38.086
1584546410.419,30.762,24.902,31.250,29.297,33.203
1584546410.423,17.090,26.855,31.738,38.574,19.043
1584546410.427,26.855,26.367,30.762,9.766,64.453
1584546410.431,39.062,25.879,30.273,-4.395,78.613
1584546410.435,27.344,25.879,33.691,21.484,57.129
1584546410.438,9.766,22.461,37.109,46.875,56.152
1584546410.442,9.766,21.973,34.668,18.066,9.766
1584546410.446,21.484,21.484,31.738,-16.113,13.672
1584546410.450,24.414,19.043,33.203,4.395,11.230
1584546410.454,14.648,22.949,34.668,41.504,7.324
1584546410.458,11.230,23.926,32.227,39.551,-5.371
1584546410.462,25.879,20.020,31.250,10.742,-5.859
1584546410.466,27.832,17.578,33.203,4.883,21.973
1584546410.470,4.395,16.602,33.691,28.320,47.363
1584546410.474,-2.441,17.090,33.203,37.598,53.223
1584546410.478,14.648,18.555,33.203,7.324,64.941
1584546410.481,29.297,18.555,28.320,-5.859,71.289
1584546410.485,17.578,19.531,26.855,17.578,39.551
1584546410.489,3.418,22.461,30.762,39.062,15.625
1584546410.493,15.625,21.973,30.273,19.531,40.039
1584546410.497,35.645,19.043,32.227,2.930,33.203
1584546410.501,31.250,22.461,35.156,25.879,3.906
1584546410.505,11.230,26.367,31.738,46.387,17.090
1584546410.509,8.789,20.996,29.785,23.438,-9.766
1584546410.513,20.508,18.066,29.785,-3.418,-0.488
1584546410.517,20.996,19.531,30.273,7.812,-15.137
1584546410.520,10.742,20.020,32.715,37.109,-21.484
1584546410.524,8.789,21.973,34.668,38.574,-27.832
1584546410.528,22.949,22.949,30.273,2.441,28.809
1584546410.532,28.320,22.461,26.367,-2.930,54.199
1584546410.536,13.184,22.949,30.273,29.297,34.180
1584546410.540,7.812,22.949,32.715,39.062,64.941
1584546410.544,20.508,20.020,31.250,2.441,-18.066
1584546410.548,28.320,20.508,31.250,-11.719,-24.414
1584546410.552,20.508,26.367,29.785,24.414,-13.672
1584546410.556,8.301,29.297,28.320,40.039,-13.184
1584546410.560,15.137,27.344,29.297,10.254,-1.465
1584546410.563,27.832,23.438,27.832,-13.184,29.785
1584546410.567,23.926,21.484,30.762,10.742,37.109
1584546410.571,7.324,22.461,35.156,39.062,70.312
1584546410.575,3.906,22.461,34.180,22.949,52.246
1584546410.579,19.531,21.484,30.762,-9.766,10.742
1584546410.583,22.949,21.973,32.227,0.000,77.637
1584546410.587,10.742,25.391,35.645,33.691,39.062
1584546410.591,12.207,26.855,36.133,30.273,54.199
1584546410.595,23.438,25.879,33.203,4.395,80.078
1584546410.599,25.879,23.926,29.785,7.324,3.418
1584546410.603,16.602,24.414,31.250,39.551,-11.719
1584546410.606,3.418,26.367,33.691,42.969,-3.418
1584546410.610,13.184,27.344,31.250,8.301,-17.578
1584546410.614,27.832,25.879,30.762,-4.883,-12.207
1584546410.618,20.996,27.344,31.738,19.043,-13.672
1584546410.622,11.230,33.691,30.762,39.551,30.273
1584546410.626,14.648,30.273,30.762,20.508,1.465
1584546410.630,30.273,24.902,31.738,-2.930,-18.066
1584546410.634,30.762,26.855,32.227,10.742,-0.488
1584546410.638,8.789,30.273,31.250,30.273,-12.207
1584546410.642,12.207,32.227,32.227,24.414,11.719
1584546410.645,36.133,30.762,28.809,0.977,16.113
1584546410.649,43.945,29.297,28.809,8.301,30.762
1584546410.653,27.344,32.715,32.715,47.363,36.133
1584546410.657,16.113,34.180,31.250,47.852,42.480
1584546410.661,23.926,28.809,27.832,3.906,33.203
1584546410.665,27.832,24.902,29.297,-2.930,20.020
1584546410.669,18.066,26.367,32.227,25.879,31.250
1584546410.673,3.418,28.320,30.273,37.109,75.195
1584546410.677,12.695,27.832,25.391,5.371,80.566
1584546410.681,27.832,28.809,23.438,-15.137,40.527
1584546410.685,19.531,30.273,25.879,14.160,35.645
1584546410.688,9.766,30.762,30.273,48.340,32.227
1584546410.692,20.996,33.203,30.273,35.156,47.852
1584546410.696,33.691,33.691,26.367,-2.930,61.523
1584546410.700,33.691,33.203,26.367,9.277,41.992
1584546410.704,15.137,29.785,29.785,42.480,52.734
1584546410.708,2.441,26.855,33.691,28.809,62.500
1584546410.712,12.695,23.438,32.227,-8.301,19.531
1584546410.716,23.438,23.438,28.809,-2.930,-8.301
1584546410.720,14.160,28.320,28.320,29.785,-14.160
1584546410.724,8.789,29.785,28.320,31.738,16.602
1584546410.728,29.297,27.832,31.738,5.859,19.043
1584546410.731,39.062,26.855,30.273,-1.953,8.301
1584546410.735,26.367,26.367,28.320,23.926,24.414
1584546410.739,12.207,25.879,26.855,36.621,63.477
1584546410.743,18.066,27.344,25.879,9.766,89.355
1584546410.747,33.691,23.438,25.391,-3.418,22.949
1584546410.751,31.250,21.484,24.902,23.438,10.254
1584546410.755,13.672,22.949,25.879,47.852,-10.742
1584546410.759,10.254,20.996,24.414,20.508,-12.207
1584546410.763,20.996,18.066,23.926,-9.766,57.129
1584546410.767,21.973,16.602,25.879,6.836,-18.066
1584546410.770,10.254,20.508,28.809,37.598,-41.016
1584546410.774,7.812,26.367,32.715,39.551,11.719
1584546410.778,23.438,23.438,30.273,6.348,-22.461
1584546410.782,33.203,20.508,28.809,4.395,-3.418
1584546410.786,20.508,26.367,30.762,35.156,27.344
1584546410.790,9.766,29.297,31.738,40.527,19.531
1584546410.794,21.973,21.973,30.273,6.836,-14.160
1584546410.798,31.738,19.531,29.297,-6.348,2.930
1584546410.802,21.973,21.973,31.738,28.320,40.527
1584546410.806,12.207,24.902,32.715,54.199,67.383
1584546410.810,18.066,23.438,30.273,22.949,54.688
1584546410.813,30.762,18.555,27.832,-13.672,18.066
1584546410.817,36.133,22.949,30.273,15.625,0.977
1584546410.821,27.344,30.762,31.250,55.664,63.477
1584546410.825,25.391,29.297,30.273,42.480,109.375
1584546410.829,36.621,23.926,31.738,10.742,7.812
1584546410.833,28.320,23.438,28.320,12.207,-55.664
1584546410.837,17.090,26.855,26.367,43.945,-0.488
1584546410.841,24.414,28.320,29.785,48.828,22.461
1584546410.845,40.527,25.391,28.809,18.066,-6.348
1584546410.849,41.016,21.484,30.762,8.789,31.738
1584546410.853,20.020,20.020,31.738,31.738,47.363
1584546410.856,8.789,18.066,26.855,34.668,39.551
1584546410.860,20.508,17.578,25.391,6.348,52.246
1584546410.864,34.180,19.531,27.832,0.000,53.711
1584546410.868,25.391,20.508,27.832,26.367,3.418
1584546410.872,6.836,15.625,24.414,42.480,23.926
1584546410.876,11.230,14.160,21.973,20.996,79.590
1584546410.880,33.203,14.648,24.414,1.465,70.312
1584546410.884,32.227,15.625,26.367,20.996,57.617
1584546410.888,12.207,20.020,27.344,52.734,69.824
1584546410.892,11.719,22.461,25.879,39.062,40.039
1584546410.895,31.738,22.949,25.391,7.324,23.438
1584546410.899,47.852,23.926,25.879,19.531,72.754
1584546410.903,31.738,24.414,26.367,47.852,69.336
1584546410.907,17.090,23.438,26.855,40.527,5.859
1584546410.911,24.902,22.949,24.414,8.789,23.438
1584546410.915,30.762,22.461,21.973,4.395,49.805
1584546410.919,23.438,22.949,21.973,28.809,47.852
1584546410.923,18.066,24.902,24.414,41.992,51.270
1584546410.927,25.879,22.461,25.391,15.137,37.109
1584546410.931,28.320,19.043,25.391,-0.488,34.668
1584546410.935,23.926,20.996,27.832,28.809,29.785
1584546410.938,15.137,25.391,29.785,52.246,4.883
1584546410.942,19.043,27.344,28.320,30.273,6.348
1584546410.946,36.621,24.414,25.391,3.906,-29.297
1584546410.950,29.785,22.949,25.391,10.742,-3.418
1584546410.954,15.625,23.438,25.879,36.133,32.227
1584546410.958,16.602,25.879,27.832,31.250,-7.812
1584546410.962,38.086,23.926,28.809,-5.859,24.414
1584546410.966,41.992,21.484,24.902,-4.883,11.230
1584546410.970,20.508,26.855,23.438,31.250,-21.973
1584546410.974,15.137,27.344,25.879,35.645,12.207
1584546410.978,25.879,21.973,27.344,5.859,29.297
1584546410.981,41.504,21.973,26.855,-1.465,-11.719
1584546410.985,20.020,30.273,27.832,29.297,-11.230
1584546410.989,-2.441,29.785,29.785,45.898,49.805
1584546410.993,29.297,22.461,29.785,20.020,36.133
1584546410.997,41.504,20.020,28.809,1.465,-31.738
1584546411.001,30.273,23.926,29.785,30.762,4.395
1584546411.005,26.367,26.367,32.715,49.805,83.496
1584546411.009,18.066,20.996,31.250,19.043,72.266
1584546411.013,26.367,20.996,27.344,-10.742,50.781
1584546411.017,35.156,23.926,29.785,10.742,27.344
1584546411.020,16.602,23.926,30.273,44.434,12.695
1584546411.024,12.207,23.926,28.320,37.109,-22.461
1584546411.028,30.273,21.484,29.297,8.301,-47.852
1584546411.032,39.062,19.531,28.809,6.348,0.977
1584546411.036,23.926,24.902,25.879,34.180,48.828
1584546411.040,15.137,26.367,24.414,42.480,1.953
1584546411.044,28.320,22.949,25.879,11.719,12.207
1584546411.048,40.527,20.996,26.855,0.000,11.230
1584546411.052,29.297,19.531,28.809,26.367,2.441
1584546411.056,16.113,21.973,28.809,34.180,73.730
1584546411.060,26.367,24.902,27.832,12.207,15.625
1584546411.063,43.457,23.926,27.344,-2.441,-6.348
1584546411.067,42.480,23.438,29.297,18.066,26.367
1584546411.071,29.785,27.832,31.250,49.805,11.719
1584546411.075,25.391,26.367,32.715,32.715,22.949
1584546411.079,35.645,20.996,29.297,4.883,20.508
1584546411.083,42.480,21.484,27.344,26.367,-21.973
1584546411.087,25.879,24.902,28.320,49.316,-43.945
1584546411.091,-0.977,25.391,26.367,35.156,-11.230
1584546411.095,20.996,22.461,26.367,3.906,14.160
1584546411.099,54.199,22.461,26.855,2.930,9.766
1584546411.103,32.227,27.344,26.367,33.203,17.578
1584546411.106,13.184,29.297,27.832,45.410,53.223
1584546411.110,23.926,24.414,27.832,22.461,66.895
1584546411.114,38.574,21.973,27.832,4.883,55.176
1584546411.118,29.785,22.949,28.320,32.715,21.484
1584546411.122,17.090,25.391,31.250,58.105,31.250
1584546411.126,24.414,24.902,29.785,32.715,18.555
1584546411.130,33.691,22.461,27.344,3.906,-2.441
1584546411.134,30.762,22.949,29.785,19.531,-19.043
1584546411.138,17.090,25.879,32.715,45.898,21.484
1584546411.142,15.137,26.367,34.180,31.250,19.531
1584546411.145,30.273,24.902,35.156,1.465,69.336
1584546411.149,29.785,24.414,32.227,9.766,67.871
1584546411.153,20.508,24.902,31.250,39.551,-15.625
1584546411.157,15.625,26.855,30.273,40.527,16.113
1584546411.161,20.996,25.879,29.297,8.789,6.348
1584546411.165,30.273,24.414,29.785,-1.953,14.160
1584546411.169,23.926,22.949,31.738,34.180,58.594
1584546411.173,15.137,22.949,34.668,53.223,31.250
1584546411.177,25.391,23.926,32.227,27.344,36.133
1584546411.181,39.551,24.902,27.344,8.301,42.480
1584546411.185,32.227,23.926,28.809,22.949,53.223
1584546411.188,-0.977,21.973,31.250,33.203,75.195
1584546411.192,10.742,22.461,28.809,16.113,40.039
1584546411.196,42.969,24.902,29.785,2.930,38.086
1584546411.200,37.598,23.926,33.691,14.648,31.250
1584546411.204,22.949,24.414,37.598,53.223,22.461
1584546411.208,11.230,25.391,39.551,46.387,35.156
1584546411.212,22.461,24.414,33.203,10.254,45.410
1584546411.216,42.969,25.879,31.250,15.137,19.043
1584546411.220,31.250,28.320,35.156,41.016,-4.883
1584546411.224,21.484,29.785,35.645,42.969,-36.621
1584546411.228,36.133,28.320,35.645,11.719,-7.812
1584546411.231,41.992,25.391,30.273,-1.465,-21.484
1584546411.235,24.902,25.879,29.297,20.996,-17.578
1584546411.239,9.277,26.855,34.668,39.551,-16.602
1584546411.243,18.555,23.438,35.645,17.578,44.434
1584546411.247,35.645,22.949,31.738,-3.418,80.078
1584546411.251,25.879,23.926,28.809,18.555,43.457
1584546411.255,7.324,24.414,31.738,44.434,56.152
1584546411.259,14.160,22.949,34.180,26.855,34.180
1584546411.263,37.109,22.461,33.691,0.977,36.133
1584546411.267,30.762,20.996,37.109,15.137,31.738
1584546411.270,10.254,21.973,40.039,40.527,13.672
1584546411.274,11.230,22.949,38.086,37.598,-14.648
1584546411.278,38.086,22.461,33.203,4.395,-14.648
1584546411.282,44.434,26.855,31.738,5.859,21.973
1584546411.286,19.043,30.273,33.691,41.992,68.359
1584546411.290,6.836,30.762,33.203,44.434,47.852
1584546411.294,23.438,28.809,32.227,11.230,-17.090
1584546411.298,33.691,27.344,36.621,-3.418,-20.508
1584546411.302,17.090,24.902,38.086,25.391,21.973
1584546411.306,11.719,23.926,35.156,51.270,60.547
1584546411.310,22.461,25.879,32.715,27.832,54.199
1584546411.313,38.086,26.855,29.785,-0.977,29.297
1584546411.317,31.738,28.809,31.250,23.926,-5.371
1584546411.321,0.488,30.273,34.668,58.105,8.301
1584546411.325,2.930,30.762,34.180,36.133,48.340
1584546411.329,37.598,28.809,31.738,3.906,31.250
1584546411.333,36.621,25.391,32.227,20.020,7.812
1584546411.337,25.391,29.297,34.180,40.527,12.695
1584546411.341,17.578,31.250,33.691,32.715,44.434
1584546411.345,29.785,30.273,33.203,1.953,70.312
1584546411.349,41.016,30.273,34.668,-2.441,36.133
1584546411.353,21.973,29.785,38.086,30.762,-17.090
1584546411.356,11.719,29.297,37.598,44.434,-36.133
1584546411.360,25.879,31.250,35.645,15.625,31.738
1584546411.364,35.156,30.762,36.133,2.441,54.199
1584546411.368,22.949,28.809,38.086,33.203,15.625
1584546411.372,7.812,28.809,42.480,54.688,58.594
1584546411.376,18.066,27.832,39.551,33.691,82.520
1584546411.380,35.645,28.809,33.203,7.812,73.242
1584546411.384,31.738,29.785,31.250,12.207,55.176
1584546411.388,13.672,30.273,33.691,35.645,27.344
1584546411.392,9.766,27.344,36.621,31.250,-0.488
1584546411.395,27.344,24.902,37.109,5.859,10.254
1584546411.399,32.715,26.367,32.715,6.836,20.020
1584546411.403,16.113,28.809,31.738,35.156,25.879
1584546411.407,14.160,27.832,34.668,33.691,48.340
1584546411.411,29.785,20.508,36.133,5.371,-7.812
1584546411.415,28.809,19.531,38.574,3.418,-16.602
1584546411.419,15.137,22.461,38.574,22.461,35.156
1584546411.423,-5.371,23.926,38.086,36.621,-12.695
1584546411.427,-0.488,21.973,39.062,10.254,30.273
1584546411.431,39.062,23.438,38.574,-3.418,81.055
1584546411.435,34.180,27.832,35.156,23.438,17.578
1584546411.438,17.578,27.832,34.180,40.527,3.418
1584546411.442,18.066,21.484,34.668,10.254,26.367
1584546411.446,26.855,18.555,34.668,-15.625,23.926
1584546411.450,27.344,19.531,37.598,12.695,52.246
1584546411.454,12.695,19.531,37.598,47.363,51.758
1584546411.458,8.789,22.949,33.691,32.227,-18.555
1584546411.462,18.066,22.461,34.668,-10.254,-26.855
1584546411.466,25.879,21.973,38.086,-4.395,33.691
1584546411.470,15.625,24.414,40.527,30.762,56.152
1584546411.474,4.883,24.902,36.133,27.832,29.297
1584546411.478,22.461,26.855,32.715,-2.441,-6.348
1584546411.481,31.738,27.344,34.668,-7.812,9.766
1584546411.485,13.672,22.949,35.645,22.461,25.879
1584546411.489,1.953,22.949,34.180,38.086,49.805
1584546411.493,17.578,24.902,33.691,14.648,52.734
1584546411.497,38.574,25.879,34.180,2.441,54.199
1584546411.501,32.227,25.879,32.715,21.484,26.367
1584546411.505,9.766,26.367,32.227,42.969,-11.719
1584546411.509,9.277,28.320,32.715,24.902,19.531
1584546411.513,28.320,27.344,33.203,4.883,48.828
1584546411.517,33.203,27.832,33.691,18.555,57.617
1584546411.520,15.137,29.297,33.203,39.062,27.344
1584546411.524,11.230,30.762,32.715,33.203,11.719
1584546411.528,25.879,28.809,32.715,6.836,32.227
1584546411.532,38.574,28.320,33.691,16.602,45.410
1584546411.536,28.809,27.344,36.621,49.316,4.883
1584546411.540,17.090,25.879,40.039,43.457,-14.648
1584546411.544,29.785,27.344,39.062,8.789,26.367
1584546411.548,40.039,29.785,33.203,1.465,47.363
1584546411.552,40.527,33.203,31.250,35.156,-11.230
1584546411.556,27.832,30.762,33.691,56.641,8.301
1584546411.560,28.320,26.855,32.227,23.926,67.871
1584546411.563,41.016,26.855,28.320,-3.906,25.391
1584546411.567,38.086,30.762,26.855,13.184,12.695
1584546411.571,23.438,36.133,28.320,43.945,7.324
1584546411.575,26.367,37.109,27.344,37.598,15.137
1584546411.579,38.086,31.250,24.902,5.371,50.293
1584546411.583,34.180,26.367,27.832,16.113,23.926
1584546411.587,21.973,27.344,31.738,46.387,54.688
1584546411.591,17.578,28.320,33.203,40.527,66.406
1584546411.595,31.250,25.391,30.762,8.789,42.480
1584546411.599,40.039,22.949,26.367,5.371,33.691
1584546411.603,26.367,26.367,26.367,40.039,52.734
1584546411.606,13.672,27.344,23.926,40.527,37.598
1584546411.610,16.113,23.926,22.461,-1.465,-2.930
1584546411.614,26.367,23.926,24.902,-10.742,12.695
1584546411.618,20.508,25.879,26.367,20.508,29.785
1584546411.622,10.742,24.414,27.832,39.062,57.129
1584546411.626,19.531,22.949,27.832,15.625,32.227
1584546411.630,27.344,23.926,23.926,-6.348,18.555
1584546411.634,26.367,27.344,24.414,15.137,10.742
1584546411.638,16.602,29.785,26.855,49.805,-9.277
1584546411.642,13.184,28.320,22.949,33.691,9.766
1584546411.645,29.785,29.785,22.949,-1.953,48.828
1584546411.649,33.691,26.855,23.926,5.371,53.711
1584546411.653,15.137,22.949,24.414,36.133,50.781
1584546411.657,11.719,25.391,26.855,34.180,5.859
1584546411.661,20.020,25.879,22.949,3.906,-56.152
1584546411.665,26.367,23.926,17.090,-2.930,-16.602
1584546411.669,12.695,24.414,19.531,17.578,55.176
1584546411.673,-4.883,24.414,27.344,30.273,19.043
1584546411.677,8.301,20.996,30.273,7.324,7.812
1584546411.681,41.992,20.020,30.273,1.465,52.246
1584546411.685,33.691,23.438,28.320,31.738,51.758
1584546411.688,11.230,28.320,22.949,46.387,53.223
1584546411.692,20.020,29.785,21.973,23.438,-18.555
1584546411.696,29.297,27.344,24.414,-1.465,-56.152
1584546411.700,19.531,22.461,26.367,8.789,-9.766
1584546411.704,1.953,19.043,27.832,33.203,19.531
1584546411.708,6.836,21.484,30.762,29.297,53.223
1584546411.712,22.949,23.926,26.367,-6.836,54.688
1584546411.716,31.250,27.344,20.996,-7.812,20.996
1584546411.720,19.531,31.250,22.949,31.738,10.254
1584546411.724,14.160,28.320,24.902,38.086,76.172
1584546411.728,28.320,25.391,23.926,13.672,30.762
1584546411.731,35.156,26.367,21.973,5.859,-35.156
1584546411.735,27.344,28.809,23.438,30.273,-37.109
1584546411.739,20.508,32.227,23.438,49.316,-20.996
1584546411.743,23.926,26.367,25.391,23.926,-5.371
1584546411.747,32.715,21.484,28.809,-2.930,-8.301
1584546411.751,28.809,24.902,30.273,17.578,23.438
1584546411.755,15.625,30.273,31.250,44.434,5.859
1584546411.759,19.531,31.738,30.762,27.344,11.230
1584546411.763,39.551,30.762,29.297,0.488,29.785
1584546411.767,35.645,31.738,32.227,19.043,18.066
1584546411.770,20.996,29.297,32.227,47.852,7.324
1584546411.774,11.719,23.926,29.297,30.273,12.695
1584546411.778,19.043,23.926,27.344,0.000,20.020
1584546411.782,38.086,24.414,29.297,13.184,24.414
1584546411.786,30.762,24.414,30.762,44.434,37.109
1584546411.790,16.602,29.785,25.879,43.945,-15.625
1584546411.794,26.855,32.227,23.438,16.113,10.254
1584546411.798,41.992,28.809,26.367,8.789,37.598
1584546411.802,36.133,24.414,32.227,34.180,29.297
1584546411.806,22.949,27.344,36.621,51.270,57.617
1584546411.810,27.344,30.273,31.250,32.227,14.160
1584546411.813,41.016,26.855,25.391,11.719,-6.836
1584546411.817,45.898,28.809,30.762,40.039,33.691
1584546411.821,31.738,28.320,35.645,63.965,42.480
1584546411.825,22.461,25.391,33.691,33.691,73.242
1584546411.829,36.133,26.855,30.273,5.859,57.129
1584546411.833,42.480,27.344,27.344,18.555,-1.465
1584546411.837,26.367,28.320,30.273,43.457,10.254
1584546411.841,13.672,24.902,31.738,31.250,15.625
1584546411.845,29.785,22.461,28.320,0.977,6.836
1584546411.849,43.457,24.414,26.367,0.488,-1.465
1584546411.853,27.832,26.855,26.367,31.738,4.883
1584546411.856,18.066,29.785,27.344,49.805,36.621
1584546411.860,41.016,28.809,25.391,22.461,67.383
1584546411.864,55.664,24.414,25.391,7.812,29.785
1584546411.868,28.320,22.949,26.855,38.574,19.531
1584546411.872,16.602,23.926,28.809,57.617,25.391
1584546411.876,23.926,26.367,28.809,23.926,37.109
1584546411.880,37.598,27.832,24.902,-5.371,62.988
1584546411.884,39.062,28.809,25.391,23.926,95.215
1584546411.888,25.879,29.785,25.391,54.688,73.730
1584546411.892,31.738,29.785,25.879,41.016,50.293
1584546411.895,43.945,28.809,26.855,8.789,62.012
1584546411.899,38.574,27.344,27.832,16.113,65.918
1584546411.903,22.461,26.855,30.273,46.387,33.691
1584546411.907,22.461,27.832,30.762,36.133,12.207
1584546411.911,43.945,27.832,26.855,8.301,-20.020
1584546411.915,44.922,26.855,22.949,9.277,-2.441
1584546411.919,26.367,26.367,22.461,34.180,63.477
1584546411.923,17.578,25.879,25.879,45.410,42.480
1584546411.927,31.250,26.855,24.902,16.602,-4.883
1584546411.931,46.875,30.273,20.996,0.488,-6.348
1584546411.935,38.574,32.715,22.949,33.203,28.809
1584546411.938,19.531,32.227,26.855,49.805,30.273
1584546411.942,20.996,31.250,27.344,20.996,26.855
1584546411.946,38.086,31.250,28.809,6.836,41.992
1584546411.950,36.621,30.273,28.809,30.762,67.383
1584546411.954,12.695,29.297,27.344,46.387,44.922
1584546411.958,8.301,30.273,30.273,31.738,-5.859
1584546411.962,32.715,28.320,31.738,-2.441,4.883
1584546411.966,17.090,24.414,27.832,-13.184,-4.395
1584546411.970,-8.789,28.320,26.367,16.113,-3.906
1584546411.974,15.625,33.691,26.855,24.414,27.344
1584546411.978,36.621,34.180,22.949,1.953,-3.418
1584546411.981,39.551,34.668,19.531,-3.906,53.223
1584546411.985,18.555,33.203,20.996,17.578,93.750
1584546411.989,10.742,32.715,26.367,35.156,6.348
1584546411.993,27.832,32.715,27.832,19.043,4.395
1584546411.997,44.922,31.250,24.902,2.441,37.598
1584546412.001,40.527,32.227,23.438,19.043,40.527
1584546412.005,11.719,31.738,26.367,42.480,33.691
1584546412.009,9.277,27.832,29.785,27.344,29.785
1584546412.013,33.203,26.855,28.320,-1.465,38.086
1584546412.017,31.738,28.320,25.879,6.348,48.828
1584546412.020,10.254,28.809,29.785,35.156,12.207
1584546412.024,3.906,23.438,32.715,24.902,-14.160
1584546412.028,24.414,20.020,32.715,-5.371,-2.441
1584546412.032,32.227,23.438,33.691,1.953,8.301
1584546412.036,15.625,28.320,32.227,39.551,55.176
1584546412.040,7.812,28.320,31.250,42.969,33.203
1584546412.044,20.996,25.391,32.227,4.883,-51.758
1584546412.048,28.809,22.949,32.227,-4.395,-33.203
1584546412.052,19.531,26.855,35.645,33.203,3.418
1584546412.056,6.836,29.297,38.086,52.246,38.574
1584546412.060,16.602,21.484,37.109,20.020,80.078
1584546412.063,34.668,19.043,35.645,-0.977,16.113
1584546412.067,29.297,20.996,34.180,22.949,-3.418
1584546412.071,12.207,23.438,31.738,47.363,-6.836
1584546412.075,13.184,25.879,29.297,25.391,-17.090
1584546412.079,28.320,25.879,28.320,-6.348,33.203
1584546412.083,28.320,28.320,27.832,4.883,5.371
1584546412.087,15.625,29.785,24.414,36.621,59.570
1584546412.091,11.719,26.855,25.879,30.273,50.293
1584546412.095,24.414,23.926,31.738,-2.441,8.789
1584546412.099,40.039,25.391,28.320,3.418,22.461
1584546412.103,1.953,26.855,26.855,26.367,25.879
1584546412.106,-25.391,27.832,30.762,29.297,92.773
1584546412.110,16.602,26.855,31.250,7.812,70.801
1584546412.114,33.691,25.391,29.297,-6.348,52.246
1584546412.118,15.625,25.879,31.250,20.996,109.863
1584546412.122,5.371,26.367,31.738,41.992,28.809
1584546412.126,13.184,28.809,26.855,11.719,20.508
1584546412.130,21.484,29.785,22.461,-13.184,53.711
1584546412.134,22.949,30.273,23.926,10.742,40.527
1584546412.138,13.184,35.645,28.320,36.621,55.664
1584546412.142,14.648,38.086,30.273,20.508,0.000
1584546412.145,23.438,31.738,32.227,-8.301,17.578
1584546412.149,17.578,28.809,31.250,0.488,47.852
1584546412.153,8.789,30.273,34.668,39.062,32.715
1584546412.157,16.602,29.297,38.086,52.246,50.293
1584546412.161,39.062,31.738,32.227,22.949,36.621
1584546412.165,45.410,36.133,28.809,8.789,-22.461
1584546412.169,28.320,35.645,31.250,30.273,-20.020
1584546412.173,12.207,34.180,32.227,41.016,10.254
1584546412.177,15.137,27.832,30.762,8.789,8.301
1584546412.181,23.926,24.414,33.691,-10.742,42.969
1584546412.185,21.973,28.809,34.668,21.484,27.344
1584546412.188,8.301,31.738,30.762,43.945,4.883
1584546412.192,8.789,26.855,32.227,20.508,8.301
1584546412.196,29.785,24.414,32.715,-3.906,-16.602
1584546412.200,27.832,27.832,33.203,14.160,12.207
1584546412.204,10.742,30.762,35.156,41.992,35.156
1584546412.208,20.508,31.738,33.691,28.320,31.738
1584546412.212,28.809,30.273,30.273,-0.488,68.848
1584546412.216,26.367,29.297,26.855,-0.488,54.688
1584546412.220,20.020,30.762,28.320,30.762,34.668
1584546412.224,17.578,30.273,28.809,35.645,45.898
1584546412.228,31.738,32.227,27.832,6.836,11.230
1584546412.231,42.480,34.668,30.273,3.418,2.441
1584546412.235,22.949,30.273,33.691,30.273,-8.301
1584546412.239,0.488,28.320,34.668,34.668,-38.086
1584546412.243,16.602,31.250,33.691,10.742,-26.367
1584546412.247,33.691,34.180,31.250,2.441,14.160
1584546412.251,28.320,37.109,29.297,22.461,71.777
1584546412.255,9.766,33.691,28.809,35.645,11.230
1584546412.259,4.395,30.273,31.250,16.602,-12.695
1584546412.263,21.973,26.367,31.738,-4.883,12.695
1584546412.267,20.996,23.438,30.273,5.371,4.395
1584546412.270,8.789,23.926,33.691,29.785,-7.324
1584546412.274,7.812,26.367,34.668,28.809,-19.531
1584546412.278,29.297,28.320,31.250,6.836,44.922
1584546412.282,32.715,27.344,28.809,1.465,85.449
1584546412.286,27.832,29.297,27.344,32.227,31.250
1584546412.290,14.648,30.273,28.809,38.574,60.059
1584546412.294,15.137,29.785,27.832,10.254,64.941
1584546412.298,39.062,30.762,29.297,-0.977,19.043
1584546412.302,29.785,32.715,32.715,22.949,-10.254
1584546412.306,13.672,34.668,29.785,36.133,-20.508
1584546412.310,18.555,33.203,27.344,10.742,17.090
1584546412.313,35.645,31.738,27.832,-9.766,28.320
1584546412.317,35.645,33.203,30.273,12.207,23.438
1584546412.321,14.160,36.621,31.250,47.852,17.578
1584546412.325,12.207,37.109,28.320,26.367,-11.230
1584546412.329,38.086,36.133,26.367,-5.371,6.836
1584546412.333,33.691,33.691,28.320,8.301,41.504
1584546412.337,18.066,31.738,30.273,40.527,47.363
1584546412.341,20.996,33.691,29.785,39.551,33.691
1584546412.345,18.066,34.180,26.367,1.953,-3.418
1584546412.349,19.531,31.250,24.414,-7.324,13.184
1584546412.353,18.555,28.320,26.367,19.043,16.602
1584546412.356,5.371,26.855,27.832,31.738,18.066
1584546412.360,20.020,25.391,28.809,11.230,-9.277
1584546412.364,34.668,29.785,29.297,0.488,29.297
1584546412.368,18.555,32.227,27.344,22.461,49.316
1584546412.372,-2.930,32.227,26.367,34.668,29.785
1584546412.376,1.953,32.715,28.809,9.766,27.344
1584546412.380,20.996,30.762,30.273,-10.742,-6.348
1584546412.384,17.090,29.785,29.785,9.277,-1.465
1584546412.388,3.418,33.203,32.227,34.668,9.766
1584546412.392,6.836,35.156,32.227,19.531,5.859
1584546412.395,28.320,32.227,32.715,1.465,14.648
1584546412.399,37.598,30.273,36.133,18.555,22.461
1584546412.403,18.555,27.832,36.621,47.852,34.668
1584546412.407,7.324,28.320,34.668,42.480,3.906
1584546412.411,22.461,29.785,32.227,5.371,-28.320
1584546412.415,29.785,27.832,30.273,-2.441,32.227
1584546412.419,16.113,28.320,32.715,28.320,39.551
1584546412.423,10.742,31.250,33.691,33.691,11.719
1584546412.427,22.461,32.227,29.785,8.301,64.941
1584546412.431,37.109,32.715,29.785,-0.977,52.734
1584546412.435,25.391,34.180,32.227,15.625,13.184
1584546412.438,7.324,35.645,33.203,35.645,31.738
1584546412.442,6.836,32.227,32.715,11.230,-22.949
1584546412.446,17.090,26.855,30.762,-17.578,-42.969
1584546412.450,19.531,27.344,28.320,-0.977,29.785
1584546412.454,9.277,30.762,25.391,23.926,55.176
1584546412.458,6.836,33.203,23.926,18.555,57.617
1584546412.462,20.020,28.809,24.902,-4.395,77.637
1584546412.466,23.926,25.391,26.367,-3.418,73.730
1584546412.470,12.695,30.762,27.344,22.461,37.598
1584546412.474,6.348,33.691,28.809,28.809,-6.348
1584546412.478,23.926,33.203,26.367,0.977,-43.945
1584546412.481,30.762,35.156,22.949,-8.301,-4.395
1584546412.485,14.648,35.645,25.391,19.531,50.293
1584546412.489,6.836,35.156,31.738,34.180,34.668
1584546412.493,13.184,31.738,35.156,8.789,25.391
1584546412.497,23.926,27.344,34.668,-5.859,23.438
1584546412.501,15.137,26.855,38.086,17.578,18.555
1584546412.505,5.371,27.344,40.527,40.527,46.387
1584546412.509,11.230,26.855,36.621,18.555,42.480
1584546412.513,27.832,23.926,33.691,-7.812,4.883
1584546412.517,15.625,26.855,35.156,14.160,33.203
1584546412.520,-4.395,30.273,36.621,44.922,24.902
1584546412.524,12.695,31.250,35.156,36.133,1.953
1584546412.528,25.879,32.227,33.691,-1.465,-29.297
1584546412.532,23.926,29.297,34.668,-3.906,-21.484
1584546412.536,12.695,29.785,34.668,24.902,61.035
1584546412.540,2.441,32.227,35.156,28.809,88.867
1584546412.544,1.465,28.809,32.715,2.930,86.914
1584546412.548,15.625,29.297,30.762,-7.812,85.449
1584546412.552,9.277,31.250,31.738,9.766,53.223
1584546412.556,-10.254,31.738,31.738,20.996,80.078
1584546412.560,0.000,33.691,27.832,-5.371,96.191
1584546412.563,22.949,33.691,25.879,-19.531,11.230
1584546412.567,15.625,33.691,29.785,1.465,15.625
1584546412.571,-7.812,30.762,33.691,17.578,8.789
1584546412.575,-15.137,28.809,35.645,3.418,-35.645
1584546412.579,8.789,28.320,34.668,-17.090,9.277
1584546412.583,18.555,25.879,32.227,-2.441,19.531
1584546412.587,0.977,23.438,34.668,22.461,26.367
1584546412.591,-13.184,20.508,38.086,18.066,28.809
1584546412.595,1.465,20.996,34.180,-15.137,28.320
1584546412.599,11.230,21.973,30.273,-30.762,71.777
1584546412.603,-7.324,24.414,30.762,0.488,44.922
1584546412.606,-17.578,26.367,32.227,11.719,11.230
1584546412.610,-5.371,24.414,32.227,-20.996,-20.508
1584546412.614,-1.953,21.973,32.715,-28.320,-6.836
1584546412.618,-10.254,23.926,35.645,-7.324,41.504
1584546412.622,-20.508,27.344,34.180,5.371,50.293
1584546412.626,-17.090,26.367,28.809,-18.555,-19.043
1584546412.630,0.000,25.391,31.738,-37.598,-54.688
1584546412.634,3.906,26.855,35.156,-7.812,18.066
1584546412.638,-6.836,28.809,36.621,23.926,68.848
1584546412.642,-8.301,29.297,37.598,8.301,59.082
1584546412.645,10.254,28.809,34.668,-22.949,55.664
1584546412.649,18.066,28.320,33.203,-3.906,49.316
1584546412.653,3.906,28.320,32.227,33.203,-13.672
1584546412.657,-3.418,29.297,31.250,23.438,27.832
1584546412.661,-0.977,24.902,30.273,-10.742,29.785
1584546412.665,11.230,22.949,32.227,-12.695,-96.191
1584546412.669,8.301,23.438,35.645,16.113,-60.059
1584546412.673,-7.812,26.855,36.133,25.391,38.086
1584546412.677,3.906,28.809,35.645,-7.324,12.207
1584546412.681,23.438,24.902,35.645,-19.531,-17.090
1584546412.685,12.207,23.926,37.598,13.184,40.527
1584546412.688,-8.789,23.926,39.062,26.367,39.551
1584546412.692,-1.465,23.926,41.504,0.488,-1.953
1584546412.696,19.043,23.926,41.016,-15.137,-4.883
1584546412.700,5.859,22.949,38.086,2.930,29.785
1584546412.704,-15.625,22.461,37.109,22.461,30.762
1584546412.708,-15.625,23.438,35.645,6.348,15.625
1584546412.712,4.395,25.879,32.715,-21.484,34.668
1584546412.716,10.742,28.809,31.738,-10.742,56.641
1584546412.720,-9.277,28.809,31.250,18.555,22.461
1584546412.724,-12.207,28.320,32.715,17.090,44.922
1584546412.728,8.301,30.273,32.227,-8.789,55.176
1584546412.731,20.508,30.273,29.297,-13.672,-7.324
1584546412.735,7.324,32.227,27.832,12.695,13.672
1584546412.739,-7.324,34.668,28.320,26.367,67.383
1584546412.743,5.859,33.691,29.297,-5.371,115.723
1584546412.747,19.043,30.273,29.785,-23.926,62.988
1584546412.751,10.254,27.832,30.762,1.465,27.832
1584546412.755,-0.977,28.320,33.691,27.832,74.219
1584546412.759,2.930,30.273,36.621,12.207,48.828
1584546412.763,17.090,28.809,32.715,-17.578,31.738
1584546412.767,17.090,30.762,31.738,-2.930,51.758
1584546412.770,-1.465,34.180,35.156,30.273,41.992
1584546412.774,-2.930,32.227,34.668,24.902,51.270
1584546412.778,20.508,33.203,32.715,-0.977,78.613
1584546412.782,24.902,34.668,34.180,1.953,54.199
1584546412.786,14.648,36.621,38.574,31.250,-7.812
1584546412.790,6.836,37.598,38.574,35.645,40.527
1584546412.794,19.043,35.645,33.203,0.000,75.684
1584546412.798,31.250,35.645,33.691,-6.348,67.383
1584546412.802,23.438,34.668,35.156,25.879,68.848
1584546412.806,11.230,32.227,34.668,39.062,-9.766
1584546412.810,13.672,31.738,33.691,11.719,-24.902
1584546412.813,29.297,32.715,32.715,-1.953,-30.762
1584546412.817,20.508,31.738,35.156,16.602,-50.781
1584546412.821,3.418,31.738,35.645,31.738,9.766
1584546412.825,7.812,31.250,31.738,10.742,19.043
1584546412.829,20.996,28.809,30.273,-23.438,21.484
1584546412.833,21.973,27.832,33.203,-5.859,21.973
1584546412.837,8.301,27.832,33.203,25.391,18.066
1584546412.841,3.418,27.832,31.250,14.160,32.715
1584546412.845,17.578,29.785,31.250,-12.695,36.133
1584546412.849,27.344,29.785,32.715,-6.348,7.324
1584546412.853,15.625,25.391,33.691,29.297,-4.395
1584546412.856,7.324,24.902,36.133,42.480,47.363
1584546412.860,21.973,26.367,36.133,17.090,93.750
1584546412.864,32.715,25.879,32.227,5.371,59.082
1584546412.868,30.273,27.344,33.203,29.785,8.789
1584546412.872,16.602,29.785,35.645,44.434,-31.738
1584546412.876,15.625,31.738,32.715,21.484,13.672
1584546412.880,38.086,32.227,32.227,1.465,-4.395
1584546412.884,25.391,27.344,33.691,15.137,6.836
1584546412.888,3.906,30.762,35.645,43.945,34.180
1584546412.892,11.719,31.738,35.156,35.156,13.184
1584546412.895,26.855,25.879,35.645,6.348,25.391
1584546412.899,36.133,25.879,35.156,17.578,40.039
1584546412.903,22.461,29.297,35.645,48.340,48.340
1584546412.907,18.555,30.273,36.133,45.898,83.984
1584546412.911,33.691,28.320,31.250,10.254,79.102
1584546412.915,40.527,30.762,29.297,5.859,7.812
1584546412.919,29.785,33.203,33.203,36.621,32.715
1584546412.923,19.043,31.738,33.203,48.828,65.430
1584546412.927,29.785,29.785,33.203,21.484,56.152
1584546412.931,41.992,30.762,32.227,-0.488,-40.527
1584546412.935,31.738,33.203,33.203,25.879,-79.590
1584546412.938,16.113,33.691,34.180,48.828,-33.203
1584546412.942,16.113,32.715,31.738,21.973,1.953
1584546412.946,32.715,29.297,31.250,0.000,46.387
1584546412.950,37.109,26.367,34.668,21.484,37.598
1584546412.954,14.648,26.367,35.645,47.852,48.340
1584546412.958,7.812,27.344,33.691,28.320,69.824
1584546412.962,25.391,26.855,32.227,-7.324,4.883
1584546412.966,26.855,25.391,31.738,-0.488,-29.785
1584546412.970,8.301,25.879,35.645,31.738,-0.488
1584546412.974,-0.977,27.344,35.156,27.344,-11.719
1584546412.978,12.207,27.832,32.715,0.000,33.691
1584546412.981,23.438,25.391,33.203,0.977,63.477
1584546412.985,14.648,26.855,36.621,27.832,1.953
1584546412.989,7.324,29.785,37.109,41.992,-3.906
1584546412.993,21.484,30.273,33.691,16.113,23.438
1584546412.997,39.062,29.297,32.227,0.000,27.344
1584546413.001,33.691,28.320,33.691,20.996,34.668
1584546413.005,20.020,32.715,35.645,44.434,18.555
1584546413.009,23.438,34.180,35.645,29.297,29.785
1584546413.013,36.133,30.273,33.691,-1.953,43.945
1584546413.017,32.227,29.785,31.738,7.812,53.711
1584546413.020,12.695,29.297,34.180,34.668,23.438
1584546413.024,8.301,28.809,35.645,27.344,15.137
1584546413.028,30.273,30.762,36.133,2.441,-5.371
1584546413.032,29.785,29.785,35.645,2.930,19.531
1584546413.036,7.324,33.691,34.180,33.203,51.758
1584546413.040,8.301,37.109,34.668,41.016,33.203
1584546413.044,25.879,33.203,32.715,14.160,20.996
1584546413.048,41.016,30.762,31.250,9.766,-28.320
1584546413.052,29.297,32.227,30.273,37.109,-17.578
1584546413.056,16.113,33.691,30.273,44.922,4.883
1584546413.060,21.484,29.297,29.785,19.531,27.344
1584546413.063,25.391,23.926,28.809,-10.742,24.414
1584546413.067,20.996,25.879,32.227,9.766,20.020
1584546413.071,15.137,29.297,34.668,41.016,44.922
1584546413.075,20.996,30.762,35.156,24.414,15.625
1584546413.079,34.180,32.227,34.180,-3.418,34.668
1584546413.083,31.250,31.738,33.203,7.324,59.082
1584546413.087,17.578,33.203,32.227,40.527,-0.488
1584546413.091,20.020,32.715,33.691,41.504,2.930
1584546413.095,31.738,30.762,32.715,11.719,48.828
1584546413.099,43.457,32.715,28.809,14.160,21.973
1584546413.103,29.785,35.156,27.832,40.039,-15.137
1584546413.106,12.207,34.668,28.320,46.387,37.109
1584546413.110,20.508,32.227,26.367,12.207,86.426
1584546413.114,31.250,31.738,28.320,-1.953,66.895
1584546413.118,26.855,31.738,30.762,29.297,-19.043
1584546413.122,14.160,29.297,28.809,44.922,-26.855
1584546413.126,22.949,28.320,27.832,25.879,41.992
1584546413.130,37.109,28.809,27.344,4.883,13.672
1584546413.134,28.809,29.297,28.809,24.902,-5.859
1584546413.138,9.766,28.809,31.250,44.922,5.859
1584546413.142,7.812,27.344,30.273,25.391,1.953
1584546413.145,28.320,23.926,28.320,-4.883,18.555
1584546413.149,36.621,22.461,29.785,7.324,6.836
1584546413.153,26.367,25.391,30.273,45.410,-1.953
1584546413.157,20.996,29.785,28.320,41.016,11.230
1584546413.161,27.832,31.250,25.879,12.695,-34.180
1584546413.165,34.668,31.250,25.391,5.859,-17.578
1584546413.169,20.508,31.738,25.879,20.508,40.039
1584546413.173,11.230,30.762,26.367,28.809,30.273
1584546413.177,16.602,29.785,28.320,9.277,46.387
1584546413.181,28.809,28.809,30.762,-0.977,55.176
1584546413.185,25.879,30.762,29.785,20.020,41.016
1584546413.188,13.184,33.691,28.809,38.086,34.668
1584546413.192,19.043,33.203,29.785,20.508,26.367
1584546413.196,36.133,31.738,28.320,-1.953,-15.625
1584546413.200,34.668,32.227,27.832,14.648,43.945
1584546413.204,13.184,32.227,30.273,42.480,82.031
1584546413.208,15.625,32.227,31.250,31.250,20.996
1584546413.212,39.062,32.227,27.832,2.441,96.680
1584546413.216,42.969,30.273,27.344,11.719,113.770
1584546413.220,20.020,27.344,32.227,44.434,49.805
1584546413.224,10.254,26.855,31.250,41.992,20.996
1584546413.228,21.484,25.391,27.344,4.395,2.441
1584546413.231,27.832,26.367,28.320,-6.836,10.742
1584546413.235,15.137,30.273,30.762,23.926,14.648
1584546413.239,8.301,30.762,33.203,37.598,24.414
1584546413.243,19.531,27.344,33.691,13.184,29.297
1584546413.247,29.785,28.320,33.691,-4.883,35.156
1584546413.251,21.484,28.809,36.133,14.648,56.152
1584546413.255,5.371,26.367,37.598,41.504,43.457
1584546413.259,9.277,25.391,35.156,16.113,-11.230
1584546413.263,28.320,29.297,31.738,-14.648,-35.156
1584546413.267,31.250,31.250,30.273,10.742,37.109
1584546413.270,14.648,30.762,31.250,39.551,88.379
1584546413.274,15.625,33.203,30.273,25.391,38.086
1584546413.278,26.855,30.762,25.879,-8.789,13.672
1584546413.282,25.391,30.762,26.367,-4.883,32.227
1584546413.286,16.113,37.109,28.320,30.762,24.414
1584546413.290,12.695,38.574,26.367,38.574,37.598
1584546413.294,26.367,33.691,24.414,7.812,13.672
1584546413.298,32.715,34.668,23.438,-3.418,-25.879
1584546413.302,18.066,37.598,26.855,20.020,16.113
1584546413.306,8.789,36.133,27.344,28.809,29.297
1584546413.310,18.555,34.668,26.855,8.301,-15.137
1584546413.313,33.203,34.180,26.855,-3.418,-27.344
1584546413.317,28.809,35.156,28.320,18.066,12.695
1584546413.321,10.254,34.180,31.250,42.969,26.367
1584546413.325,10.254,32.715,31.250,25.391,60.547
1584546413.329,28.320,31.250,27.832,-5.859,111.816
1584546413.333,34.668,30.762,27.344,7.812,63.965
1584546413.337,20.508,33.203,28.320,42.969,-12.695
1584546413.341,13.184,35.645,26.855,35.645,-47.363
1584546413.345,28.320,32.227,26.855,3.418,2.441
1584546413.349,35.645,30.273,26.855,-1.953,63.965
1584546413.353,14.648,31.738,30.273,25.391,64.453
1584546413.356,1.465,32.715,34.180,27.832,8.789
1584546413.360,13.184,30.273,34.180,-0.488,22.949
1584546413.364,25.879,27.832,33.203,-3.906,-1.465
1584546413.368,19.531,30.762,34.668,26.855,-3.418
1584546413.372,7.812,34.180,34.180,43.945,72.266
1584546413.376,19.531,33.203,33.203,18.555,53.711
1584546413.380,34.668,30.762,32.227,0.488,-31.250
1584546413.384,28.320,30.762,31.738,20.508,5.859
1584546413.388,10.742,32.715,31.738,47.852,53.223
1584546413.392,11.719,29.297,29.297,30.762,40.039
1584546413.395,31.250,28.320,30.273,1.953,26.855
1584546413.399,35.156,32.715,30.273,14.648,-2.930
1584546413.403,21.484,34.668,30.762,47.363,17.578
1584546413.407,16.602,35.156,32.715,43.945,53.223
1584546413.411,28.809,32.227,32.715,5.859,35.156
1584546413.415,33.691,29.297,32.715,1.953,-20.996
1584546413.419,23.926,29.785,34.668,31.738,-5.371
1584546413.423,9.277,28.320,34.180,38.574,44.922
1584546413.427,11.719,26.367,30.273,9.277,16.113
1584546413.431,27.832,25.879,29.785,-6.348,42.969
1584546413.435,24.414,24.902,32.227,14.648,64.941
1584546413.438,9.766,27.832,31.250,34.668,41.504
1584546413.442,13.672,31.250,30.273,12.695,-0.977
1584546413.446,29.297,30.273,28.320,-10.742,10.742
1584546413.450,29.297,28.320,30.273,9.766,94.238
1584546413.454,11.719,29.297,31.250,37.598,21.973
1584546413.458,8.301,30.762,32.227,26.367,-50.293
1584546413.462,30.273,30.762,34.668,2.441,29.297
1584546413.466,29.785,30.273,33.691,11.719,46.387
1584546413.470,5.859,31.250,34.180,40.527,3.906
1584546413.474,4.883,33.203,31.738,36.621,11.230
1584546413.478,18.555,34.180,27.832,3.418,15.625
1584546413.481,33.203,31.738,27.344,-6.348,11.719
1584546413.485,25.879,33.203,28.320,19.531,22.461
1584546413.489,18.555,37.109,28.809,40.039,21.484
1584546413.493,32.227,34.668,27.832,23.438,71.777
1584546413.497,43.945,30.762,25.879,9.766,66.406
1584546413.501,37.598,33.203,25.879,32.715,-1.953
1584546413.505,23.926,35.156,24.414,54.199,46.387
1584546413.509,25.879,34.668,23.926,36.133,81.055
1584546413.513,38.086,36.133,23.438,6.836,28.809
1584546413.517,37.598,35.645,24.902,12.695,8.789
1584546413.520,15.625,34.668,29.297,41.504,50.293
1584546413.524,11.719,30.273,30.762,31.250,45.898
1584546413.528,27.344,27.344,29.297,-4.883,67.383
1584546413.532,28.320,27.832,27.344,-3.418,53.223
1584546413.536,16.602,28.809,28.809,30.273,32.227
1584546413.540,14.160,29.297,29.785,34.668,24.902
1584546413.544,27.832,25.391,27.344,1.465,6.836
1584546413.548,35.645,25.391,29.785,1.953,34.668
1584546413.552,24.902,27.344,32.715,34.668,20.508
1584546413.556,14.160,28.809,35.645,46.387,24.414
1584546413.560,27.344,28.809,35.156,22.949,12.207
1584546413.563,42.480,27.344,32.227,4.395,1.953
1584546413.567,36.621,31.738,33.691,24.902,9.766
1584546413.571,29.785,34.180,33.203,49.805,10.742
1584546413.575,37.109,33.203,30.762,36.133,39.062
1584546413.579,47.852,30.762,29.785,9.277,15.137
1584546413.583,45.410,30.273,30.762,22.949,-8.789
1584546413.587,27.832,31.250,33.203,46.387,4.395
1584546413.591,20.020,29.785,31.250,28.809,64.941
1584546413.595,38.574,32.227,27.832,3.418,41.992
1584546413.599,47.852,32.227,30.273,14.648,-8.301
1584546413.603,29.297,27.832,36.133,42.480,-18.066
1584546413.606,15.137,27.344,39.062,45.898,-33.203
1584546413.610,29.785,27.832,39.062,20.020,14.160
1584546413.614,37.109,27.344,36.621,4.883,31.250
1584546413.618,25.879,28.320,35.645,30.273,40.039
1584546413.622,19.531,29.785,36.133,51.758,35.645
1584546413.626,22.949,30.273,36.133,28.809,49.316
1584546413.630,29.297,26.367,33.203,1.465,36.621
1584546413.634,25.879,25.391,30.273,10.742,2.441
1584546413.638,10.254,28.809,28.320,35.156,41.504
1584546413.642,8.789,29.785,29.297,25.879,85.938
1584546413.645,30.273,26.367,28.809,2.441,9.766
1584546413.649,35.645,23.926,30.273,17.090,-2.441
1584546413.653,17.578,22.461,35.645,46.875,44.922
1584546413.657,8.789,23.438,37.109,43.457,37.598
1584546413.661,24.902,24.414,34.668,11.230,26.367
1584546413.665,38.574,25.879,34.180,9.277,13.672
1584546413.669,26.855,28.320,34.180,34.180,30.762
1584546413.673,16.602,29.785,35.156,40.039,-14.648
1584546413.677,25.391,30.762,33.203,12.695,-48.828
1584546413.681,38.574,29.297,31.250,0.000,-3.906
1584546413.685,32.715,33.203,33.203,26.367,20.508
1584546413.688,13.184,32.227,32.715,43.457,2.441
1584546413.692,11.719,28.320,29.297,21.484,13.672
1584546413.696,28.809,29.785,25.391,-0.977,50.781
1584546413.700,29.785,28.320,24.414,20.996,37.598
1584546413.704,15.137,28.809,28.320,55.664,8.789
1584546413.708,20.996,30.762,27.344,47.852,39.551
1584546413.712,39.551,29.297,23.926,18.066,45.898
1584546413.716,45.410,30.273,26.855,25.391,42.480
1584546413.720,27.344,33.203,28.809,50.781,83.008
1584546413.724,20.996,33.203,25.879,34.180,84.961
1584546413.728,34.180,33.691,22.461,-0.977,58.594
1584546413.731,34.668,34.180,20.996,2.441,20.020
1584546413.735,24.902,35.645,22.461,30.762,21.484
1584546413.739,19.043,39.062,21.973,44.922,41.016
1584546413.743,35.156,39.062,19.531,19.531,30.273
1584546413.747,37.598,32.227,20.508,-0.488,46.875
1584546413.751,22.461,28.320,22.949,20.996,60.059
1584546413.755,12.695,29.785,27.344,43.945,1.465
1584546413.759,21.973,26.855,33.691,32.227,0.000
1584546413.763,39.551,27.344,31.738,6.836,59.570
1584546413.767,31.738,30.273,26.367,9.277,28.320
1584546413.770,10.742,31.738,25.391,32.227,-22.949
1584546413.774,14.160,35.156,26.855,30.273,-1.465
1584546413.778,33.691,30.762,25.879,7.324,18.555
1584546413.782,38.086,23.926,25.391,14.648,56.641
1584546413.786,22.949,24.414,30.762,47.852,26.855
1584546413.790,18.066,24.902,35.156,51.758,15.625
1584546413.794,32.227,25.879,31.250,21.484,22.461
1584546413.798,37.598,26.855,26.855,4.883,-10.254
1584546413.802,25.879,28.320,26.367,24.902,-70.801
1584546413.806,16.602,28.320,27.344,43.945,-47.363
1584546413.810,28.809,26.855,26.855,23.438,60.547
1584546413.813,44.434,22.949,22.461,-3.418,59.082
1584546413.817,31.738,21.973,22.949,15.137,5.859
1584546413.821,11.719,25.879,27.832,43.457,-26.367
1584546413.825,15.137,23.438,28.320,28.320,36.621
1584546413.829,32.227,21.484,26.855,2.930,48.828
1584546413.833,26.855,22.461,27.832,11.230,4.395
1584546413.837,9.277,24.902,30.762,39.062,29.785
1584546413.841,7.324,25.879,32.715,30.762,77.148
1584546413.845,20.996,23.926,28.809,-1.953,26.855
1584546413.849,27.344,24.902,28.320,8.789,18.555
1584546413.853,20.996,27.832,30.762,46.387,32.715
1584546413.856,16.602,28.320,27.344,49.316,-42.969
1584546413.860,23.926,29.785,23.926,12.207,-7.812
1584546413.864,32.227,32.227,20.996,-8.789,32.227
1584546413.868,20.020,33.691,20.996,20.508,20.996
1584546413.872,7.324,34.180,23.438,38.574,36.133
1584546413.876,22.949,32.227,24.414,18.555,16.602
1584546413.880,42.480,29.785,25.391,3.906,-13.184
1584546413.884,37.109,29.297,28.320,22.461,-6.836
1584546413.888,21.973,29.297,32.227,44.434,-11.719
1584546413.892,15.137,28.809,31.738,26.855,0.977
1584546413.895,30.273,31.250,27.832,-1.465,25.391
1584546413.899,43.945,34.180,26.367,15.137,39.062
1584546413.903,32.715,35.645,29.297,51.758,59.570
1584546413.907,23.926,34.668,33.203,50.781,55.664
1584546413.911,30.273,33.203,33.691,15.625,33.691
1584546413.915,39.062,29.297,33.203,13.184,30.273
1584546413.919,26.367,26.855,31.250,31.738,12.695
1584546413.923,4.395,27.832,32.715,34.668,-22.949
1584546413.927,16.113,29.785,32.715,11.230,16.602
1584546413.931,34.180,29.785,26.367,-2.930,54.688
1584546413.935,23.926,30.273,24.902,20.508,-17.090
1584546413.938,14.160,32.715,26.367,41.016,-1.465
1584546413.942,20.996,32.227,24.902,20.020,60.059
1584546413.946,30.762,31.250,22.461,-11.230,28.809
1584546413.950,26.855,32.715,21.484,3.906,62.500
1584546413.954,15.625,36.621,20.996,40.527,77.637
1584546413.958,14.160,35.645,20.508,26.855,48.340
1584546413.962,25.391,30.762,22.461,-11.719,33.691
1584546413.966,25.391,26.855,26.855,-6.836,-23.926
1584546413.970,9.766,28.320,30.273,23.438,7.812
1584546413.974,8.301,29.785,28.320,28.320,41.992
1584546413.978,15.625,28.809,26.855,3.418,23.926
1584546413.981,24.902,27.832,27.832,-3.906,50.781
1584546413.985,19.043,30.273,28.809,20.996,36.621
1584546413.989,5.371,33.203,27.832,32.715,21.973
1584546413.993,13.184,32.227,27.344,6.836,30.273
1584546413.997,32.227,27.832,28.809,-8.789,-16.113
1584546414.001,27.832,28.320,29.785,14.648,20.020
1584546414.005,11.230,32.227,27.832,39.062,72.266
1584546414.009,10.742,30.273,27.344,15.137,25.391
1584546414.013,21.973,27.832,25.391,-18.555,-6.348
1584546414.017,20.508,26.855,25.391,0.977,-0.488
1584546414.020,11.230,27.344,27.344,41.992,45.898
1584546414.024,10.742,28.320,27.832,35.156,31.250
1584546414.028,18.555,26.855,27.344,-5.371,44.922
1584546414.032,20.020,25.391,25.391,-5.371,92.285
1584546414.036,9.766,26.367,27.344,22.949,94.238
1584546414.040,5.859,28.320,26.855,25.879,54.199
1584546414.044,21.484,27.832,22.949,0.977,46.875
1584546414.048,32.227,26.855,21.973,-7.812,39.551
1584546414.052,18.066,23.926,26.855,20.996,50.781
1584546414.056,0.977,20.508,31.250,38.574,104.492
1584546414.060,12.695,22.461,33.691,20.020,42.969
1584546414.063,28.320,24.414,29.785,0.488,40.527
1584546414.067,12.207,24.414,24.902,12.695,57.129
1584546414.071,-3.906,27.832,28.809,36.621,-7.812
1584546414.075,1.953,29.297,31.250,23.926,-4.883
1584546414.079,23.438,27.344,28.809,-2.930,29.297
1584546414.083,27.344,25.879,26.367,14.160,30.762
1584546414.087,10.742,25.391,28.809,50.293,35.645
1584546414.091,10.742,23.438,32.715,41.504,17.090
1584546414.095,19.043,21.484,30.762,-0.488,-5.859
1584546414.099,17.578,22.461,26.855,-8.789,-30.762
1584546414.103,2.930,27.832,24.902,15.625,-15.137
1584546414.106,-6.836,31.250,27.832,30.273,23.438
1584546414.110,16.113,27.344,30.273,13.184,61.035
1584546414.114,35.645,27.344,29.785,5.371,30.273
1584546414.118,26.855,27.832,29.297,31.738,-10.254
1584546414.122,14.160,29.785,28.320,45.898,-12.207
1584546414.126,18.555,33.203,24.414,15.625,-21.973
1584546414.130,29.785,31.250,21.973,-8.789,-0.488
1584546414.134,22.461,30.762,22.949,11.230,3.906
1584546414.138,7.324,31.738,21.484,34.668,19.043
1584546414.142,11.230,31.738,20.020,18.066,33.691
1584546414.145,32.715,29.785,19.531,-11.230,7.324
1584546414.149,32.715,29.785,22.949,5.859,17.578
1584546414.153,9.277,32.227,26.855,40.527,10.742
1584546414.157,-0.488,31.738,27.344,32.227,-18.066
1584546414.161,11.719,28.809,26.855,-1.465,33.691
1584546414.165,20.996,29.785,25.879,-1.465,67.383
1584546414.169,9.277,29.785,26.367,25.879,45.898
1584546414.173,2.441,27.832,27.832,36.621,22.461
1584546414.177,16.113,24.414,27.832,11.719,23.438
1584546414.181,30.762,20.508,30.273,-5.859,25.391
1584546414.185,22.949,20.996,33.691,23.926,45.410
1584546414.188,9.277,23.926,34.668,43.457,50.781
1584546414.192,8.789,26.367,31.250,7.812,-2.930
1584546414.196,19.043,27.344,29.297,-20.020,6.836
1584546414.200,27.832,28.809,29.785,8.301,27.344
1584546414.204,19.043,31.250,29.785,42.969,6.348
1584546414.208,10.742,29.297,31.250,26.855,33.691
1584546414.212,21.484,26.367,31.738,-3.906,31.738
1584546414.216,25.391,24.414,32.227,2.930,5.859
1584546414.220,10.254,21.973,33.691,39.551,37.109
1584546414.224,0.000,20.996,37.109,38.574,67.871
1584546414.228,18.555,22.461,38.574,6.348,46.875
1584546414.231,34.180,24.414,33.203,2.930,20.508
1584546414.235,19.531,28.320,29.297,17.578,-10.254
1584546414.239,13.184,31.250,29.297,30.762,21.484
1584546414.243,25.391,29.785,29.785,24.414,12.207
1584546414.247,37.109,25.391,29.785,6.836,-29.297
1584546414.251,33.203,26.367,31.250,13.184,23.926
1584546414.255,12.695,29.297,35.645,33.691,-1.953
1584546414.259,16.602,27.832,34.180,20.508,-53.711
1584546414.263,34.180,25.879,35.645,2.441,15.137
1584546414.267,37.109,24.902,38.574,22.461,50.781
1584546414.270,26.367,28.320,36.621,50.781,30.273
1584546414.274,24.414,30.762,35.645,40.039,24.902
1584546414.278,37.598,28.809,33.691,5.371,13.184
1584546414.282,38.574,27.344,30.762,7.812,13.672
1584546414.286,25.391,30.762,29.297,37.598,26.367
1584546414.290,20.020,34.668,28.320,41.504,68.359
1584546414.294,33.203,30.273,25.391,7.324,48.828
1584546414.298,41.016,28.320,25.879,-1.465,34.180
1584546414.302,28.320,30.273,30.273,39.062,78.613
1584546414.306,23.926,32.715,33.203,57.617,50.781
1584546414.310,38.086,34.180,31.738,27.832,24.414
1584546414.313,42.969,33.691,28.809,4.883,-5.371
1584546414.317,31.250,35.645,29.785,26.367,7.324
1584546414.321,14.648,34.668,30.762,50.781,6.836
1584546414.325,13.672,30.273,28.809,29.785,-0.977
1584546414.329,31.738,26.855,28.809,2.441,29.297
1584546414.333,31.738,26.367,30.762,15.625,29.297
1584546414.337,20.020,25.391,31.738,36.621,-12.207
1584546414.341,14.160,24.414,31.738,20.508,1.953
1584546414.345,18.066,23.926,29.785,-8.789,39.062
1584546414.349,28.809,26.367,28.809,-3.418,55.664
1584546414.353,16.602,29.785,31.738,26.367,41.504
1584546414.356,6.348,30.762,33.203,38.086,31.250
1584546414.360,28.809,29.785,33.203,20.020,27.832
1584546414.364,42.969,31.250,33.203,6.348,14.648
1584546414.368,25.391,35.645,31.738,25.391,-8.301
1584546414.372,16.113,38.086,35.156,46.875,-21.484
1584546414.376,26.855,36.621,37.109,28.809,4.395
1584546414.380,41.504,32.715,34.180,6.836,20.020
1584546414.384,40.527,31.250,33.203,20.996,8.301
1584546414.388,23.926,33.203,33.203,48.828,12.695
1584546414.392,23.438,34.180,33.203,39.062,37.109
1584546414.395,40.039,36.621,30.762,4.883,14.160
1584546414.399,42.480,40.039,30.273,11.719,10.742
1584546414.403,24.902,39.551,33.203,39.062,44.922
1584546414.407,20.020,37.109,34.668,41.504,88.867
1584546414.411,36.621,35.645,31.250,11.719,45.410
1584546414.415,40.039,36.621,28.320,-1.953,-47.852
1584546414.419,26.367,38.086,29.785,27.832,-15.625
1584546414.423,18.555,38.086,29.297,43.945,3.906
1584546414.427,28.320,32.715,29.785,15.625,27.832
1584546414.431,41.016,28.809,30.762,-1.465,81.055
1584546414.435,33.203,30.762,32.715,29.297,37.109
1584546414.438,17.090,32.715,34.180,52.246,-5.859
1584546414.442,14.648,34.180,28.809,18.066,21.484
1584546414.446,28.809,33.203,23.926,-13.184,26.367
1584546414.450,28.809,32.227,25.879,7.812,15.137
1584546414.454,12.207,30.273,29.785,37.598,10.254
1584546414.458,14.648,27.344,30.273,30.762,-1.465
1584546414.462,28.809,29.785,29.785,2.441,50.293
1584546414.466,20.020,32.227,27.344,-2.441,58.105
1584546414.470,4.883,33.203,25.879,20.996,22.461
1584546414.474,11.719,33.203,26.367,22.949,42.969
1584546414.478,27.832,32.227,26.855,-5.371,27.832
1584546414.481,38.086,28.809,27.832,-3.418,6.836
1584546414.485,25.391,26.367,32.227,32.715,-13.672
1584546414.489,7.324,27.832,34.668,43.457,0.000
1584546414.493,4.883,30.762,31.250,8.301,49.316
1584546414.497,20.508,29.785,27.832,-15.137,16.113
1584546414.501,18.555,30.273,28.320,10.742,-41.016
1584546414.505,2.441,31.738,30.273,32.715,-3.906
1584546414.509,12.695,28.809,28.809,17.090,26.367
1584546414.513,27.832,26.367,25.391,-7.324,12.207
1584546414.517,21.484,26.367,26.367,-0.488,-3.906
1584546414.520,0.977,29.785,25.879,23.438,13.672
1584546414.524,0.488,31.738,25.391,17.578,31.738
1584546414.528,22.461,30.762,23.438,-6.836,24.902
1584546414.532,29.297,33.203,20.996,-0.488,32.715
1584546414.536,14.648,33.691,22.461,28.320,19.531
1584546414.540,11.230,32.227,24.902,29.297,18.555
1584546414.544,26.367,29.785,26.855,3.906,35.156
1584546414.548,36.133,25.879,27.344,0.977,69.824
1584546414.552,26.367,25.879,28.809,31.250,64.453
1584546414.556,13.672,31.250,31.738,49.805,50.293
1584546414.560,20.508,33.691,26.855,19.531,86.426
1584546414.563,34.180,31.738,23.926,-3.906,51.270
1584546414.567,27.344,33.691,25.391,13.184,-21.973
1584546414.571,11.719,36.133,26.855,34.668,-1.465
1584546414.575,21.973,34.668,24.902,26.367,7.812
1584546414.579,42.480,35.156,22.461,7.812,20.020
1584546414.583,38.574,33.691,25.879,17.090,17.578
1584546414.587,20.020,30.273,33.691,42.480,4.883
1584546414.591,18.555,31.738,32.715,33.203,18.555
1584546414.595,26.855,33.691,24.902,-6.348,6.348
1584546414.599,27.344,31.250,26.367,-4.883,0.488
1584546414.603,24.414,32.227,29.785,32.715,-10.742
1584546414.606,22.949,33.691,26.367,38.086,9.766
1584546414.610,25.879,30.273,22.949,4.883,23.438
1584546414.614,35.156,30.762,22.949,-4.883,16.113
1584546414.618,25.879,34.180,23.926,22.949,64.453
1584546414.622,10.254,35.156,25.391,37.598,76.660
1584546414.626,20.508,33.203,27.832,14.160,77.637
1584546414.630,40.527,32.227,26.855,-1.953,71.289
1584546414.634,41.992,33.691,26.367,24.902,-41.992
1584546414.638,24.414,34.668,28.809,46.387,-57.617
1584546414.642,15.625,33.203,26.367,20.996,38.574
1584546414.645,28.320,30.273,25.391,-11.719,9.766
1584546414.649,33.203,31.738,25.879,0.000,-19.531
1584546414.653,23.438,33.691,24.414,40.039,8.301
1584546414.657,21.484,34.668,25.879,34.180,36.621
1584546414.661,28.320,34.180,24.902,3.906,46.387
1584546414.665,33.691,33.203,22.949,10.742,10.742
1584546414.669,17.090,33.203,23.926,30.762,23.438
1584546414.673,4.395,30.762,25.391,30.273,25.879
1584546414.677,21.973,29.297,25.879,8.789,11.230
1584546414.681,35.645,27.832,26.855,0.488,3.906
1584546414.685,32.227,32.715,28.320,25.879,-17.578
1584546414.688,18.066,35.645,27.832,44.434,-45.410
1584546414.692,18.555,35.645,23.926,23.438,-12.207
1584546414.696,36.133,32.715,21.484,0.488,-20.020
1584546414.700,34.180,28.320,22.461,17.090,-46.387
1584546414.704,11.719,30.273,23.438,47.852,22.461
1584546414.708,11.719,32.227,23.438,31.250,18.066
1584546414.712,28.809,31.250,21.484,-7.324,-46.387
1584546414.716,31.738,30.273,23.438,2.441,3.906
1584546414.720,23.926,32.715,26.855,41.504,60.547
1584546414.724,20.020,33.203,30.762,47.363,35.156
1584546414.728,30.762,32.227,26.855,15.137,-2.441
1584546414.731,36.621,31.250,25.391,5.859,-8.789
1584546414.735,20.996,31.738,29.785,33.691,5.859
1584546414.739,9.766,32.715,29.785,47.852,60.059
1584546414.743,25.391,31.250,28.320,20.996,45.898
1584546414.747,36.621,32.227,26.367,-1.465,31.738
1584546414.751,29.785,34.668,29.297,22.949,51.270
1584546414.755,20.508,37.598,31.738,50.781,58.105
1584546414.759,30.273,38.086,28.320,25.879,49.316
1584546414.763,53.223,37.109,25.391,-1.465,91.309
1584546414.767,47.852,39.062,27.344,22.949,59.082
1584546414.770,24.902,39.551,29.785,55.176,-42.969
1584546414.774,20.996,38.086,27.832,41.992,4.395
1584546414.778,38.086,36.133,25.391,13.672,3.906
1584546414.782,45.410,37.598,25.391,22.461,-14.160
1584546414.786,28.809,37.109,27.344,41.504,35.156
1584546414.790,22.461,33.203,30.762,39.551,67.871
1584546414.794,34.668,31.738,28.809,24.414,52.734
1584546414.798,54.688,35.156,23.926,20.508,37.109
1584546414.802,42.969,38.574,22.949,32.227,43.945
1584546414.806,13.184,39.062,23.926,28.809,41.992
1584546414.810,23.926,36.621,22.949,5.859,69.336
1584546414.813,43.457,36.133,22.949,-1.465,47.852
1584546414.817,45.898,39.551,22.949,24.414,17.090
1584546414.821,30.762,41.016,24.414,49.805,76.172
1584546414.825,28.809,41.016,25.879,38.086,57.617
1584546414.829,49.316,39.062,24.414,18.555,34.180
1584546414.833,48.340,37.598,23.926,26.367,24.902
1584546414.837,26.855,40.039,22.461,44.434,6.348
1584546414.841,25.879,39.551,21.973,39.062,18.066
1584546414.845,49.316,40.039,20.996,16.113,-1.465
1584546414.849,63.965,41.016,17.578,20.020,-7.812
1584546414.853,50.293,43.457,17.578,48.340,-13.184
1584546414.856,35.645,46.875,21.973,52.734,1.953
1584546414.860,43.945,44.922,21.973,25.391,46.387
1584546414.864,61.035,41.016,19.531,20.508,3.418
1584546414.868,58.594,41.504,17.578,54.199,-15.137
1584546414.872,43.457,42.480,19.043,72.266,3.418
1584546414.876,50.781,40.039,19.531,50.293,31.738
1584546414.880,65.430,39.551,18.066,33.691,45.410
1584546414.884,49.805,40.039,17.090,41.016,39.062
1584546414.888,24.902,41.992,16.602,49.805,28.809
1584546414.892,24.414,40.039,16.602,34.180,61.523
1584546414.895,43.457,37.598,14.160,2.441,87.402
1584546414.899,49.316,40.039,15.137,14.648,43.945
1584546414.903,36.133,37.598,19.531,52.734,29.297
1584546414.907,33.203,36.621,21.973,49.316,43.945
1584546414.911,44.434,36.133,20.508,18.066,36.621
1584546414.915,42.480,33.691,18.066,10.742,11.719
1584546414.919,26.367,35.645,19.531,31.738,11.719
1584546414.923,19.531,36.133,22.949,43.945,31.250
1584546414.927,33.691,34.180,22.461,19.043,36.621
1584546414.931,47.852,33.691,19.531,9.766,42.480
1584546414.935,40.039,33.203,21.973,39.062,42.480
1584546414.938,27.832,33.691,21.973,42.969,14.648
1584546414.942,20.020,36.133,20.020,6.836,22.949
1584546414.946,36.133,36.621,19.531,-10.254,26.367
1584546414.950,44.434,34.668,19.531,16.113,14.648
1584546414.954,28.320,33.691,22.461,43.457,21.973
1584546414.958,25.391,31.738,24.902,37.598,36.133
1584546414.962,47.363,27.832,25.879,9.766,19.531
1584546414.966,55.176,28.320,26.855,24.902,26.855
1584546414.970,40.039,34.180,27.344,46.875,22.461
1584546414.974,28.809,36.621,26.855,34.668,-10.742
1584546414.978,33.691,35.156,25.879,4.883,38.574
1584546414.981,36.133,33.691,24.414,-3.418,28.320
1584546414.985,21.973,35.645,26.855,29.297,59.082
1584546414.989,32.227,38.086,30.273,60.059,62.500
1584546414.993,45.410,34.180,29.297,38.574,12.207
1584546414.997,44.434,30.273,31.738,9.766,40.527
1584546415.001,29.785,32.715,30.273,27.344,24.902
1584546415.005,7.324,30.762,28.809,50.781,24.902
1584546415.009,16.602,26.855,30.273,29.785,4.395
1584546415.013,38.086,28.320,25.391,-5.859,12.207
1584546415.017,41.992,28.809,22.461,14.160,14.648
1584546415.020,28.809,31.250,24.414,50.293,-0.977
1584546415.024,34.180,34.180,25.879,39.062,56.641
1584546415.028,41.016,32.227,23.926,2.441,49.316
1584546415.032,31.250,31.250,23.926,1.465,21.973
1584546415.036,19.043,34.180,24.902,35.156,13.184
1584546415.040,18.066,34.668,24.414,40.527,32.715
1584546415.044,36.621,32.227,20.996,5.859,42.969
1584546415.048,46.387,31.738,18.555,3.418,-19.531
1584546415.052,40.527,32.715,23.438,47.363,20.996
1584546415.056,35.156,31.250,30.273,66.895,24.902
1584546415.060,28.320,29.785,29.785,22.949,-34.180
1584546415.063,35.645,30.273,23.438,-2.930,-27.344
1584546415.067,31.250,31.250,26.367,22.949,12.207
1584546415.071,14.160,29.297,31.250,47.363,19.043
1584546415.075,19.043,27.344,27.832,30.762,-13.184
1584546415.079,37.598,30.762,21.973,-0.977,58.105
1584546415.083,38.574,33.203,22.461,11.230,86.426
1584546415.087,24.414,31.250,27.344,49.805,35.156
1584546415.091,21.973,29.785,28.809,40.527,34.668
1584546415.095,34.180,33.203,26.855,9.277,75.195
1584546415.099,41.504,32.715,26.855,12.207,35.156
1584546415.103,29.785,34.668,27.832,41.992,4.883
1584546415.106,24.414,36.621,26.855,46.875,37.598
1584546415.110,40.527,32.715,25.879,18.066,9.277
1584546415.114,57.617,29.785,29.785,15.625,-25.391
1584546415.118,43.457,29.297,32.715,41.504,10.254
1584546415.122,21.973,32.715,32.227,55.664,60.547
1584546415.126,24.902,35.156,28.809,29.785,37.598
1584546415.130,39.062,33.203,25.391,5.859,34.668
1584546415.134,34.668,32.715,26.367,20.508,30.762
1584546415.138,17.090,35.156,28.320,45.898,62.012
1584546415.142,24.414,32.227,31.738,40.527,56.641
1584546415.145,42.969,27.832,33.203,12.695,27.832
1584546415.149,37.598,29.785,31.250,19.043,37.598
1584546415.153,17.090,31.250,31.250,45.410,42.969
1584546415.157,13.672,28.320,31.250,44.434,64.941
1584546415.161,28.320,25.391,29.297,14.648,29.297
1584546415.165,36.133,25.879,29.297,5.859,-14.648
1584546415.169,22.949,28.809,30.273,41.504,0.977
1584546415.173,12.207,32.227,30.273,53.711,5.859
1584546415.177,20.020,29.785,31.250,16.602,6.348
1584546415.181,32.715,25.879,31.250,1.465,29.785
1584546415.185,26.855,27.832,30.762,28.809,7.324
1584546415.188,4.883,30.762,33.203,51.270,12.207
1584546415.192,15.625,30.762,35.156,29.297,0.488
1584546415.196,40.527,29.785,34.180,9.277,21.973
1584546415.200,36.133,29.297,34.180,27.344,51.758
1584546415.204,19.043,31.738,35.156,49.805,-8.301
1584546415.208,18.066,32.715,33.203,31.738,18.066
1584546415.212,32.227,32.715,30.762,4.395,42.969
1584546415.216,33.203,35.156,28.809,11.719,0.977
1584546415.220,13.672,34.180,27.344,38.086,7.324
1584546415.224,12.207,30.762,25.879,37.598,-31.250
1584546415.228,31.738,29.785,25.391,11.230,-19.043
1584546415.231,41.504,28.320,29.785,14.160,26.367
1584546415.235,30.273,24.902,33.203,41.504,29.785
1584546415.239,13.184,23.926,33.203,46.875,60.547
1584546415.243,17.090,25.391,29.785,14.648,63.477
1584546415.247,32.715,28.809,26.855,-4.395,89.355
1584546415.251,24.414,29.297,27.832,21.484,89.844
1584546415.255,5.859,27.832,28.320,44.922,91.797
1584546415.259,10.254,26.367,27.344,20.508,60.059
1584546415.263,26.855,25.879,25.391,-5.859,33.691
1584546415.267,25.879,26.855,23.926,10.742,45.410
1584546415.270,17.090,28.320,25.879,39.062,-18.066
1584546415.274,16.113,26.367,30.273,34.180,-7.324
1584546415.278,20.020,19.531,32.715,4.395,30.762
