timestamps,TP9,AF7,AF8,TP10,Right AUX
1584546493.759,21.973,24.902,22.461,-2.930,13.184
1584546493.763,32.227,28.809,29.785,0.488,36.133
1584546493.767,19.043,31.738,28.320,31.738,29.297
1584546493.770,9.766,29.297,26.367,40.039,60.059
1584546493.774,19.043,28.320,26.855,4.883,72.266
1584546493.778,25.879,21.973,20.020,-13.184,12.695
1584546493.782,17.578,20.996,24.902,18.066,44.922
1584546493.786,3.906,25.879,32.227,35.156,13.672
1584546493.790,4.883,25.879,26.855,1.953,41.504
1584546493.794,18.066,29.785,26.855,-20.508,80.566
1584546493.798,20.508,29.297,26.367,7.324,44.434
1584546493.802,9.277,27.344,27.344,40.039,62.500
1584546493.806,0.488,27.344,33.691,20.996,49.805
1584546493.810,7.324,24.902,34.668,-12.207,5.371
1584546493.813,14.648,24.414,30.273,-5.371,17.578
1584546493.817,3.906,27.344,33.691,25.879,-1.465
1584546493.821,-0.488,31.250,35.156,27.832,28.809
1584546493.825,15.137,27.832,27.832,-5.859,53.711
1584546493.829,25.879,23.926,27.832,-7.812,43.945
1584546493.833,10.254,23.926,27.832,18.066,30.273
1584546493.837,-0.977,24.414,32.227,26.367,5.859
1584546493.841,16.602,20.996,32.227,6.348,10.742
1584546493.845,29.297,17.578,28.809,-10.254,36.621
1584546493.849,21.973,27.832,26.855,13.672,46.875
1584546493.853,10.742,34.180,26.855,36.621,28.809
1584546493.856,7.812,27.344,27.832,13.672,27.832
1584546493.860,21.973,20.508,26.855,-9.766,54.688
1584546493.864,25.391,20.996,30.273,9.766,69.336
1584546493.868,12.207,26.367,32.227,40.527,-5.859
1584546493.872,11.719,25.879,31.250,35.156,-6.348
1584546493.876,21.973,21.484,26.367,-3.906,74.707
1584546493.880,21.484,21.484,27.832,-8.301,15.625
1584546493.884,9.277,24.414,29.785,29.785,-4.395
1584546493.888,4.395,25.879,28.809,35.645,33.691
1584546493.892,17.578,23.926,30.762,2.930,11.719
1584546493.895,24.902,19.043,30.762,-3.418,38.574
1584546493.899,15.625,19.531,32.227,27.344,108.398
1584546493.903,4.395,22.461,30.273,40.527,43.945
1584546493.907,11.230,23.438,31.250,11.230,-16.602
1584546493.911,21.973,21.973,30.273,-14.160,-32.227
1584546493.915,17.090,23.438,31.250,10.254,-54.199
1584546493.919,8.789,26.367,34.180,40.039,4.883
1584546493.923,13.672,28.320,32.715,19.043,44.434
1584546493.927,22.461,25.879,31.738,-12.695,-5.859
1584546493.931,19.043,21.973,33.203,3.906,-2.441
1584546493.935,11.230,25.879,35.645,40.527,-14.160
1584546493.938,9.277,29.785,31.738,30.762,-33.203
1584546493.942,20.996,30.762,29.785,-2.930,-7.812
1584546493.946,28.809,29.297,35.156,0.000,-3.418
1584546493.950,14.648,27.344,33.691,24.902,-9.766
1584546493.954,6.348,25.879,31.250,28.809,10.742
1584546493.958,20.508,28.809,34.180,4.395,30.273
1584546493.962,27.832,26.855,33.203,-2.441,-27.344
1584546493.966,14.648,19.043,35.156,19.531,-35.156
1584546493.970,2.930,23.438,36.621,30.762,43.945
1584546493.974,7.812,28.809,34.180,7.324,67.383
1584546493.978,22.461,29.297,32.715,-14.648,58.105
1584546493.981,18.555,26.367,32.715,4.395,41.016
1584546493.985,2.930,22.461,34.668,30.273,37.598
1584546493.989,4.883,24.414,30.762,12.695,43.457
1584546493.993,18.555,24.414,26.367,-18.555,27.832
1584546493.997,19.531,20.996,24.902,-8.301,29.785
1584546494.001,3.906,21.973,26.367,21.973,30.273
1584546494.005,2.441,25.879,28.320,18.555,5.859
1584546494.009,15.625,24.902,26.367,-16.113,23.438
1584546494.013,20.508,23.926,25.391,-20.020,75.684
1584546494.017,8.789,24.414,28.809,15.137,40.527
1584546494.020,2.930,20.020,34.668,28.320,-19.043
1584546494.024,14.160,19.531,31.738,-0.977,-10.254
1584546494.028,23.926,23.926,26.855,-21.973,37.598
1584546494.032,17.090,26.367,30.762,7.812,33.691
1584546494.036,4.883,25.391,34.180,34.668,69.336
1584546494.040,8.301,24.414,32.227,10.742,39.062
1584546494.044,20.508,26.855,31.250,-14.648,-13.672
1584546494.048,18.555,27.344,30.762,4.883,42.969
1584546494.052,-0.488,25.879,31.250,33.203,61.035
1584546494.056,-3.418,25.391,32.227,18.066,53.223
1584546494.060,15.625,24.414,31.250,-12.695,32.715
1584546494.063,16.602,20.996,30.273,-2.930,18.555
1584546494.067,3.906,23.438,34.180,30.762,27.832
1584546494.071,2.441,26.367,34.668,27.832,85.938
1584546494.075,14.648,25.879,34.668,-6.348,58.105
1584546494.079,24.414,26.855,34.668,-7.812,-20.996
1584546494.083,15.137,30.762,32.227,23.926,4.883
1584546494.087,8.301,29.785,30.762,37.109,50.293
1584546494.091,14.160,21.973,31.738,10.254,50.293
1584546494.095,21.973,23.438,31.250,-7.324,37.598
1584546494.099,15.625,30.273,30.273,16.602,23.438
1584546494.103,5.371,32.227,35.645,41.504,38.086
1584546494.106,10.254,29.297,36.621,20.508,49.805
1584546494.110,21.973,25.879,32.227,-5.859,51.270
1584546494.114,23.438,26.367,33.203,15.625,7.324
1584546494.118,8.789,29.785,34.668,35.645,41.016
1584546494.122,6.836,29.785,32.227,19.043,39.062
1584546494.126,23.438,26.367,23.926,-5.371,15.625
1584546494.130,27.832,26.855,23.926,1.465,40.039
1584546494.134,17.578,31.250,31.738,34.668,24.414
1584546494.138,13.672,30.273,32.227,37.598,18.066
1584546494.142,33.691,30.273,28.809,13.672,10.742
1584546494.145,44.922,31.250,30.762,6.836,-9.277
1584546494.149,15.625,23.926,34.668,21.484,-4.395
1584546494.153,-4.395,20.508,33.691,32.227,19.531
1584546494.157,14.648,23.438,34.668,13.184,41.504
1584546494.161,31.738,21.973,31.250,-10.742,53.223
1584546494.165,27.344,23.926,28.809,6.836,19.043
1584546494.169,10.742,28.320,30.273,29.785,11.230
1584546494.173,7.812,26.855,26.367,12.695,48.340
1584546494.177,25.391,25.391,23.438,-11.719,35.645
1584546494.181,27.344,28.320,29.785,2.930,9.277
1584546494.185,6.836,26.855,33.203,34.180,24.902
1584546494.188,5.371,26.367,34.180,26.855,36.133
1584546494.192,20.508,26.855,34.180,-7.812,20.996
1584546494.196,23.926,25.391,33.203,-8.789,35.645
1584546494.200,11.719,26.855,33.203,21.484,40.527
1584546494.204,4.395,26.855,32.715,28.320,68.359
1584546494.208,20.996,24.902,32.715,-3.418,69.824
1584546494.212,32.715,25.879,30.273,-10.254,76.172
1584546494.216,22.461,25.391,32.715,23.438,32.715
1584546494.220,14.648,22.461,38.086,42.969,-4.395
1584546494.224,22.949,23.438,39.551,18.066,21.484
1584546494.228,37.598,26.855,35.645,-6.836,1.465
1584546494.231,31.738,29.297,32.227,13.672,8.301
1584546494.235,10.742,28.809,34.180,38.574,46.387
1584546494.239,8.789,24.902,33.691,22.461,16.113
1584546494.243,28.320,24.902,32.227,-5.371,32.227
1584546494.247,36.133,27.344,31.250,9.277,30.762
1584546494.251,21.484,26.367,32.227,40.527,5.859
1584546494.255,14.160,27.344,31.738,30.762,8.301
1584546494.259,25.391,28.809,29.297,0.488,30.273
1584546494.263,32.715,24.902,29.297,2.930,22.461
1584546494.267,22.949,25.879,31.738,35.645,-2.441
1584546494.270,16.113,29.297,30.762,41.992,58.594
1584546494.274,28.320,32.227,28.320,11.230,74.219
1584546494.278,41.504,30.762,29.297,-0.488,49.805
1584546494.282,33.691,29.785,28.809,27.344,42.480
1584546494.286,16.602,33.203,30.273,47.852,47.363
1584546494.290,21.973,31.738,32.715,26.855,66.895
1584546494.294,39.062,31.738,30.273,3.418,45.898
1584546494.298,34.668,34.180,28.320,15.625,24.902
1584546494.302,18.555,35.156,24.902,38.574,36.621
1584546494.306,16.113,33.691,21.484,29.297,68.848
1584546494.310,31.738,26.367,23.438,2.930,29.297
1584546494.313,38.086,27.344,25.879,11.230,-90.332
1584546494.317,20.996,32.715,27.344,41.016,-76.172
1584546494.321,14.160,30.762,28.320,40.039,9.277
1584546494.325,27.832,30.273,23.926,5.859,-0.488
1584546494.329,30.273,28.809,18.555,2.930,13.672
1584546494.333,19.043,31.738,21.484,34.180,67.871
1584546494.337,14.160,31.738,30.273,47.363,48.340
1584546494.341,21.973,26.367,30.762,16.602,-23.926
1584546494.345,31.738,25.879,27.832,-7.324,-40.039
1584546494.349,28.320,31.738,29.785,20.996,-8.301
1584546494.353,16.113,34.180,30.762,46.875,8.301
1584546494.356,17.090,31.738,27.344,23.438,20.996
1584546494.360,30.273,30.273,25.391,-4.883,30.273
1584546494.364,30.762,33.203,26.367,13.672,-2.441
1584546494.368,15.137,33.691,26.367,43.945,4.883
1584546494.372,11.230,31.738,27.832,30.762,33.203
1584546494.376,20.508,32.227,30.762,-0.977,4.395
1584546494.380,26.367,28.809,30.762,4.883,-5.859
1584546494.384,14.160,28.320,27.832,32.227,56.641
1584546494.388,2.441,29.297,25.391,29.297,67.871
1584546494.392,11.719,20.508,25.879,-1.465,-7.812
1584546494.395,22.461,20.020,20.508,-9.277,-16.113
1584546494.399,15.625,22.461,15.137,21.484,44.922
1584546494.403,9.766,21.973,20.508,33.691,62.500
1584546494.407,19.531,30.762,25.879,8.301,9.277
1584546494.411,28.809,30.273,27.344,-3.906,8.789
1584546494.415,21.484,24.902,27.344,21.484,30.762
1584546494.419,12.207,28.809,30.273,47.363,60.059
1584546494.423,16.113,33.203,28.320,27.832,37.598
1584546494.427,30.273,28.809,20.020,-2.930,20.508
1584546494.431,32.227,28.809,22.949,11.719,43.457
1584546494.435,18.066,32.227,29.297,42.480,37.598
1584546494.438,16.113,33.691,31.250,34.668,24.414
1584546494.442,31.250,32.227,29.785,1.465,16.113
1584546494.446,36.133,29.785,29.785,4.395,-4.883
1584546494.450,21.973,24.902,31.738,34.668,-10.742
1584546494.454,15.625,24.414,33.203,42.480,-2.930
1584546494.458,26.367,26.367,31.738,13.672,-1.465
1584546494.462,33.203,26.855,28.320,0.977,9.277
1584546494.466,26.367,31.738,31.250,31.250,0.000
1584546494.470,14.160,32.715,32.715,46.387,-28.320
1584546494.474,18.066,29.297,29.785,18.066,-4.395
1584546494.478,32.715,26.855,28.320,0.488,61.523
1584546494.481,29.297,26.367,27.344,21.484,64.453
1584546494.485,18.066,26.855,26.855,51.270,-13.672
1584546494.489,26.855,23.438,28.320,48.340,0.000
1584546494.493,43.457,23.438,28.809,14.160,21.973
1584546494.497,34.180,28.809,27.832,4.395,4.883
1584546494.501,10.742,29.785,24.902,23.926,65.430
1584546494.505,8.301,29.785,23.926,20.020,31.738
1584546494.509,23.926,29.297,26.367,-5.859,3.418
1584546494.513,27.832,31.250,26.367,-8.789,-12.207
1584546494.517,14.160,34.668,24.902,20.020,-15.625
1584546494.520,8.789,30.762,26.855,31.250,24.902
1584546494.524,25.391,31.250,26.367,8.301,33.691
1584546494.528,37.109,32.715,27.832,-3.418,22.461
1584546494.532,29.785,30.762,34.668,27.832,13.672
1584546494.536,16.602,32.227,32.715,42.480,47.363
1584546494.540,12.695,32.715,23.926,6.836,28.320
1584546494.544,26.367,20.996,21.973,-13.184,15.137
1584546494.548,29.785,20.020,26.855,13.672,49.805
1584546494.552,10.254,31.250,30.273,42.969,31.250
1584546494.556,4.883,33.691,28.809,25.879,12.207
1584546494.560,21.484,33.691,23.926,-7.324,42.969
1584546494.563,25.879,34.180,22.949,0.488,52.734
1584546494.567,13.672,34.668,31.250,35.156,38.086
1584546494.571,14.648,32.227,35.156,35.645,37.109
1584546494.575,27.344,29.297,27.344,-0.977,-3.418
1584546494.579,35.645,28.320,21.973,-9.766,19.043
1584546494.583,24.902,29.785,26.855,18.066,68.848
1584546494.587,10.742,32.227,29.297,28.320,38.086
1584546494.591,18.066,26.367,27.344,1.953,-9.277
1584546494.595,33.691,22.949,26.855,-11.719,27.832
1584546494.599,28.320,29.785,26.367,16.113,82.031
1584546494.603,17.578,34.180,27.344,41.016,39.062
1584546494.606,21.973,30.762,28.320,22.461,-13.672
1584546494.610,32.715,24.902,25.391,-5.371,10.254
1584546494.614,33.203,26.367,24.414,13.184,56.152
1584546494.618,17.090,31.738,27.344,42.480,61.523
1584546494.622,12.207,30.762,28.320,32.227,38.574
1584546494.626,23.926,23.438,24.902,-5.371,21.484
1584546494.630,36.133,16.602,27.832,-3.418,13.672
1584546494.634,24.414,27.832,34.668,39.062,30.762
1584546494.638,10.742,29.785,29.785,36.133,40.039
1584546494.642,20.020,20.996,18.066,3.418,60.547
1584546494.645,26.855,26.855,18.555,-0.977,18.555
1584546494.649,16.113,36.133,28.320,26.855,23.438
1584546494.653,10.742,28.809,33.691,42.969,106.445
1584546494.657,20.996,26.855,32.227,16.113,61.523
1584546494.661,32.715,34.668,28.809,-1.465,-11.230
1584546494.665,21.484,28.320,29.297,20.508,-11.230
1584546494.669,10.254,19.043,31.738,45.898,-3.418
1584546494.673,20.996,21.973,33.203,22.949,7.812
1584546494.677,32.715,32.227,33.691,-7.812,43.945
1584546494.681,37.109,25.879,36.621,17.090,18.066
1584546494.685,17.578,15.137,36.621,47.363,50.781
1584546494.688,4.883,34.668,34.668,34.180,64.941
1584546494.692,22.461,39.551,32.715,5.371,30.762
1584546494.696,33.691,31.738,33.691,8.789,39.062
1584546494.700,13.184,37.109,30.762,31.738,49.316
1584546494.704,-6.348,29.785,25.879,24.414,49.316
1584546494.708,8.301,22.461,26.367,-5.371,16.602
1584546494.712,23.926,23.926,27.344,-8.789,-3.418
1584546494.716,13.672,27.344,28.320,18.066,-32.715
1584546494.720,4.883,29.297,32.227,33.203,-20.508
1584546494.724,8.789,26.855,29.785,8.301,6.348
1584546494.728,20.020,25.391,21.973,-14.648,-49.316
1584546494.731,21.484,24.414,27.344,4.883,-12.207
1584546494.735,9.766,24.902,34.668,32.227,46.875
1584546494.739,10.742,25.879,31.738,18.066,41.504
1584546494.743,21.973,26.367,28.809,-13.184,-0.488
1584546494.747,26.367,26.367,28.320,-4.395,61.523
1584546494.751,16.602,24.414,29.297,28.809,71.777
1584546494.755,10.254,27.344,31.738,26.855,16.113
1584546494.759,18.555,28.809,30.762,-4.395,20.020
1584546494.763,27.832,22.949,31.250,-4.395,28.809
1584546494.767,20.020,27.832,31.250,24.902,99.121
1584546494.770,6.836,32.715,32.715,29.785,82.520
1584546494.774,13.672,27.832,33.203,0.000,3.418
1584546494.778,26.855,26.367,29.785,-19.043,4.883
1584546494.782,15.625,28.320,31.250,5.859,44.922
1584546494.786,-1.953,27.832,32.715,31.738,23.438
1584546494.790,4.883,26.367,33.203,10.742,-19.043
1584546494.794,23.438,28.809,35.156,-10.742,3.906
1584546494.798,19.531,24.414,30.273,6.348,14.160
1584546494.802,2.441,20.996,27.832,31.738,11.230
1584546494.806,4.395,25.391,29.297,16.602,47.363
1584546494.810,17.090,24.414,26.855,-16.113,-14.648
1584546494.813,21.973,24.414,26.855,-9.766,-17.578
1584546494.817,12.207,29.297,23.926,22.949,1.465
1584546494.821,6.348,20.996,22.461,24.902,44.922
1584546494.825,18.066,22.461,27.344,-7.324,74.219
1584546494.829,26.855,34.668,24.414,-9.766,83.496
1584546494.833,14.648,35.645,20.508,19.043,97.656
1584546494.837,1.465,35.156,24.414,25.879,63.477
1584546494.841,8.301,31.250,23.438,-0.977,12.207
1584546494.845,21.484,27.832,24.902,-15.137,-20.996
1584546494.849,18.555,28.320,26.367,9.766,26.367
1584546494.853,2.930,24.414,25.391,30.273,58.105
1584546494.856,6.836,23.926,29.785,8.301,34.668
1584546494.860,26.367,25.879,30.762,-16.113,-3.906
1584546494.864,23.438,19.531,25.391,0.488,25.879
1584546494.868,7.812,19.531,26.367,27.344,19.043
1584546494.872,8.789,30.762,33.203,19.531,16.602
1584546494.876,18.066,28.809,29.297,-9.766,48.828
1584546494.880,18.066,20.508,23.926,-7.324,19.043
1584546494.884,4.883,24.902,27.832,19.531,21.973
1584546494.888,-2.441,24.414,27.344,11.230,-8.301
1584546494.892,10.254,22.461,21.973,-21.973,-23.438
1584546494.895,28.809,18.555,19.531,-22.461,64.941
1584546494.899,16.113,11.719,27.344,8.301,74.219
1584546494.903,-3.906,19.531,35.645,18.555,30.273
1584546494.907,7.324,24.902,35.156,-6.836,31.250
1584546494.911,25.391,20.508,32.715,-23.438,21.484
1584546494.915,19.043,24.414,33.691,-0.488,10.742
1584546494.919,5.371,31.738,34.668,26.855,2.930
1584546494.923,6.836,29.297,31.738,8.301,-1.465
1584546494.927,18.066,21.973,32.227,-20.508,36.621
1584546494.931,20.508,21.973,29.297,-0.488,85.449
1584546494.935,12.207,28.809,30.273,34.180,74.707
1584546494.938,4.883,27.832,33.203,23.438,20.508
1584546494.942,15.137,25.391,25.391,-11.230,-48.340
1584546494.946,22.949,23.438,22.461,-7.812,3.418
1584546494.950,8.301,21.484,28.320,26.855,34.668
1584546494.954,0.000,25.879,32.227,30.273,-33.691
1584546494.958,15.625,26.367,29.297,-5.371,3.418
1584546494.962,31.738,23.438,29.297,-12.207,35.156
1584546494.966,21.484,29.297,34.668,22.461,4.395
1584546494.970,3.418,34.180,30.762,38.086,25.391
1584546494.974,13.672,29.297,27.832,15.625,13.672
1584546494.978,33.203,24.414,26.367,1.465,5.859
1584546494.981,24.414,22.949,21.484,19.043,22.949
1584546494.985,5.371,22.461,25.879,38.086,21.484
1584546494.989,7.812,25.391,26.855,19.043,17.578
1584546494.993,25.391,21.484,21.973,-11.230,9.766
1584546494.997,28.320,26.855,22.949,7.324,16.113
1584546495.001,16.113,37.109,27.832,43.945,53.711
1584546495.005,7.812,32.227,30.273,31.738,64.453
1584546495.009,20.020,27.832,23.926,-0.488,33.691
1584546495.013,27.832,23.926,21.973,-1.465,47.852
1584546495.017,15.137,24.902,23.438,26.855,61.035
1584546495.020,5.859,25.879,25.391,38.574,25.391
1584546495.024,20.508,22.949,25.391,12.695,-29.785
1584546495.028,36.621,25.879,17.578,-2.930,-9.766
1584546495.032,22.949,27.344,18.066,18.555,-6.348
1584546495.036,5.859,29.297,24.414,39.062,-22.949
1584546495.040,9.766,25.879,24.902,15.137,15.137
1584546495.044,22.949,22.461,22.461,-14.648,-13.672
1584546495.048,23.926,24.414,22.461,-0.488,9.277
1584546495.052,8.789,25.391,25.879,25.879,62.988
1584546495.056,3.418,23.438,23.926,14.648,32.715
1584546495.060,20.996,21.973,23.926,-14.160,26.367
1584546495.063,24.414,22.949,25.879,-8.789,10.254
1584546495.067,5.859,20.996,26.855,25.879,48.340
1584546495.071,2.930,20.508,27.832,28.809,53.711
1584546495.075,17.578,20.020,24.902,-4.395,7.812
1584546495.079,24.902,20.996,20.996,-5.859,18.066
1584546495.083,16.602,26.855,22.461,32.227,42.480
1584546495.087,9.277,27.832,23.926,45.410,36.621
1584546495.091,17.578,22.949,22.461,11.230,12.695
1584546495.095,24.902,20.020,20.020,-10.742,39.551
1584546495.099,18.066,27.344,20.996,18.555,48.340
1584546495.103,5.371,31.250,23.926,46.387,23.438
1584546495.106,5.859,21.973,25.391,23.438,-18.555
1584546495.110,24.902,19.043,25.391,-1.953,7.324
1584546495.114,29.785,28.809,23.926,22.461,31.250
1584546495.118,13.672,32.715,28.809,52.246,-15.625
1584546495.122,6.348,28.320,33.203,41.016,-5.859
1584546495.126,20.020,21.973,32.227,12.695,18.555
1584546495.130,30.273,31.738,34.668,18.066,3.906
1584546495.134,24.902,39.062,34.180,49.316,44.922
1584546495.138,26.855,36.133,31.250,58.105,113.770
1584546495.142,28.320,30.273,32.227,23.438,46.875
1584546495.145,20.508,21.973,34.180,4.395,-17.090
1584546495.149,16.602,22.461,36.621,39.551,26.855
1584546495.153,5.371,22.461,38.574,56.152,28.320
1584546495.157,8.789,22.461,36.621,23.926,-3.906
1584546495.161,27.832,21.973,34.668,5.859,-22.461
1584546495.165,23.438,20.508,34.668,28.320,18.555
1584546495.169,13.184,20.996,31.250,49.805,2.441
1584546495.173,18.555,23.438,31.250,29.785,-62.500
1584546495.177,31.738,25.391,30.762,3.906,-7.324
1584546495.181,36.621,24.902,31.738,22.949,54.688
1584546495.185,21.484,26.367,33.203,52.734,0.488
1584546495.188,13.184,24.902,29.785,41.016,-19.043
1584546495.192,23.438,18.555,23.926,6.836,47.852
1584546495.196,22.949,15.137,25.879,1.953,43.457
1584546495.200,10.742,19.043,27.344,28.809,11.230
1584546495.204,4.883,25.879,22.949,37.598,47.363
1584546495.208,7.324,23.438,22.461,5.859,59.570
1584546495.212,18.066,17.090,21.973,-7.324,34.180
1584546495.216,10.742,18.066,26.855,21.973,25.391
1584546495.220,-3.418,18.555,30.273,40.527,95.215
1584546495.224,7.812,20.508,26.367,16.602,22.461
1584546495.228,22.461,20.508,25.391,-9.277,-58.594
1584546495.231,16.113,20.508,28.320,11.230,-5.371
1584546495.235,6.836,26.855,26.367,39.062,-2.930
1584546495.239,9.766,24.414,24.414,21.484,9.277
1584546495.243,20.508,19.043,23.926,-11.719,19.043
1584546495.247,19.043,24.414,23.926,-1.953,11.719
1584546495.251,4.883,31.738,28.809,34.180,29.785
1584546495.255,2.930,31.738,32.715,35.156,37.109
1584546495.259,19.043,28.320,32.715,4.395,35.156
1584546495.263,25.391,27.832,28.320,3.418,46.875
1584546495.267,10.254,32.227,26.855,35.645,-8.301
1584546495.270,-3.418,31.250,28.320,39.062,-50.781
1584546495.274,6.836,26.855,24.902,3.906,-8.789
1584546495.278,21.973,24.414,17.090,-8.789,6.348
1584546495.282,10.742,26.367,20.508,19.531,18.555
1584546495.286,-3.906,27.344,26.367,34.668,48.828
1584546495.290,2.441,23.926,25.879,6.348,29.297
1584546495.294,19.043,23.438,26.855,-13.184,22.949
1584546495.298,14.160,22.461,27.832,5.371,14.160
1584546495.302,-6.836,23.926,26.367,23.926,64.941
1584546495.306,-2.930,29.785,27.344,12.695,98.633
1584546495.310,17.090,30.273,26.367,-10.254,31.738
1584546495.313,25.391,30.273,25.391,2.441,5.859
1584546495.317,13.672,33.203,27.832,35.645,15.625
1584546495.321,6.836,32.715,26.855,34.668,29.297
1584546495.325,19.531,27.832,26.367,2.441,27.344
1584546495.329,28.809,23.926,26.855,-3.418,11.230
1584546495.333,20.020,22.949,25.879,24.902,47.363
1584546495.337,10.254,24.414,23.926,34.180,45.410
1584546495.341,20.020,25.391,26.367,9.277,24.902
1584546495.345,30.762,23.438,26.367,-5.371,1.953
1584546495.349,20.508,24.902,23.438,19.043,-26.855
1584546495.353,7.324,25.391,26.367,40.527,33.203
1584546495.356,8.301,19.043,26.367,21.973,52.734
1584546495.360,22.461,15.625,22.949,-3.906,1.465
1584546495.364,24.902,20.996,26.855,7.324,7.324
1584546495.368,10.742,23.926,32.227,40.527,70.801
1584546495.372,10.742,20.996,33.691,36.133,87.891
1584546495.376,23.438,17.578,29.785,0.977,27.832
1584546495.380,28.320,23.438,24.902,0.977,-39.062
1584546495.384,16.602,25.879,22.949,32.715,-15.625
1584546495.388,6.836,22.461,26.367,37.109,34.668
1584546495.392,20.996,23.926,31.738,9.766,72.754
1584546495.395,32.715,21.484,29.785,2.930,40.527
1584546495.399,18.555,23.438,29.785,29.297,-3.418
1584546495.403,7.812,24.902,29.785,42.969,84.961
1584546495.407,18.555,19.043,27.344,15.625,64.453
1584546495.411,34.668,18.066,27.344,-8.301,-1.465
1584546495.415,31.250,26.367,28.809,15.625,40.527
1584546495.419,18.555,29.297,31.250,45.898,34.668
1584546495.423,19.531,27.344,28.320,18.066,1.465
1584546495.427,32.715,25.879,24.902,-15.137,-1.953
1584546495.431,34.668,28.809,28.320,10.254,47.852
1584546495.435,16.113,31.250,26.855,45.410,59.082
1584546495.438,9.277,32.715,28.809,38.574,53.223
1584546495.442,25.879,30.762,35.156,6.348,0.000
1584546495.446,32.227,26.855,35.156,4.883,-26.367
1584546495.450,16.113,25.879,34.180,35.645,-3.418
1584546495.454,6.836,24.414,33.691,40.039,47.363
1584546495.458,19.531,25.391,32.227,12.695,63.477
1584546495.462,33.203,29.297,32.715,2.441,37.598
1584546495.466,21.484,29.785,31.250,21.973,51.758
1584546495.470,11.719,30.762,30.762,36.133,31.250
1584546495.474,20.996,30.762,28.809,11.230,59.082
1584546495.478,29.785,26.367,25.879,-7.324,61.035
1584546495.481,21.973,27.344,25.391,12.695,23.926
1584546495.485,6.348,28.320,27.832,37.598,11.230
1584546495.489,8.789,35.156,33.691,30.273,29.297
1584546495.493,21.484,37.598,31.738,-0.977,37.598
1584546495.497,20.508,31.250,26.855,6.836,-5.371
1584546495.501,5.371,31.250,28.320,36.621,1.953
1584546495.505,2.930,32.715,30.762,36.621,54.199
1584546495.509,20.508,29.297,27.344,8.301,36.621
1584546495.513,26.367,25.391,24.902,4.883,-11.719
1584546495.517,5.371,24.902,30.273,32.227,-5.859
1584546495.520,-10.254,25.391,36.133,36.133,23.438
1584546495.524,-3.418,21.973,28.320,7.324,15.625
1584546495.528,7.812,19.043,21.484,-17.090,-8.301
1584546495.532,1.465,22.949,30.273,6.836,-2.930
1584546495.536,-9.277,26.367,34.668,34.668,3.906
1584546495.540,-2.441,23.438,25.391,8.301,0.000
1584546495.544,13.672,20.020,22.461,-18.066,-33.203
1584546495.548,14.648,23.926,27.832,4.883,4.883
1584546495.552,0.977,23.438,31.250,35.156,36.621
1584546495.556,2.930,20.020,30.762,24.414,3.418
1584546495.560,21.484,23.438,27.832,-6.836,23.926
1584546495.563,24.902,27.832,24.414,0.977,23.438
1584546495.567,7.812,28.809,28.320,36.133,-10.254
1584546495.571,0.977,26.367,32.715,32.227,18.555
1584546495.575,16.113,23.926,27.832,-5.859,41.992
1584546495.579,28.320,25.391,28.320,-7.324,70.801
1584546495.583,16.602,27.832,28.320,24.902,53.223
1584546495.587,7.812,30.273,28.809,37.598,-30.273
1584546495.591,16.602,29.297,28.320,7.324,-32.227
1584546495.595,29.297,28.809,24.414,-10.742,10.742
1584546495.599,26.367,28.809,26.367,15.137,17.090
1584546495.603,16.602,29.297,28.809,38.086,48.340
1584546495.606,20.508,27.344,27.344,16.602,56.152
1584546495.610,30.273,23.926,23.438,-10.254,9.277
1584546495.614,30.762,29.785,25.879,13.672,43.945
1584546495.618,18.555,29.785,31.738,36.621,54.688
1584546495.622,14.648,30.273,32.715,18.555,11.719
1584546495.626,37.598,29.785,31.250,1.465,20.020
1584546495.630,47.852,25.391,29.785,16.113,-9.766
1584546495.634,20.020,24.902,33.691,41.992,20.020
1584546495.638,1.465,22.949,35.156,35.156,75.195
1584546495.642,10.742,19.043,32.227,1.953,40.527
1584546495.645,20.996,19.043,33.203,-4.883,41.016
1584546495.649,12.207,23.926,35.645,22.461,48.828
1584546495.653,2.441,25.879,35.156,34.668,33.691
1584546495.657,11.230,23.926,33.203,7.324,14.160
1584546495.661,28.320,20.996,30.762,-12.207,16.113
1584546495.665,26.855,25.391,32.227,11.719,-0.977
1584546495.669,10.254,29.297,34.668,36.621,15.137
1584546495.673,11.719,27.344,32.715,18.555,54.688
1584546495.677,25.391,25.879,29.785,-12.207,41.016
1584546495.681,23.926,24.902,28.320,0.488,14.648
1584546495.685,8.789,26.855,29.297,32.715,40.039
1584546495.688,5.371,26.367,31.738,24.902,41.016
1584546495.692,18.066,23.438,29.297,-5.371,35.156
1584546495.696,24.902,23.438,27.344,-3.906,20.996
1584546495.700,10.254,25.879,28.809,23.926,-34.180
1584546495.704,1.465,24.414,27.832,27.832,-50.781
1584546495.708,16.602,22.461,26.367,-4.395,39.062
1584546495.712,29.785,23.926,28.809,-14.648,60.059
1584546495.716,18.555,22.461,28.320,16.113,24.902
1584546495.720,3.418,22.461,24.902,31.250,50.293
1584546495.724,10.254,26.367,21.973,8.301,55.176
1584546495.728,25.879,27.832,22.949,-13.184,38.574
1584546495.731,19.531,27.832,23.438,6.348,23.926
1584546495.735,8.789,30.762,21.484,31.738,48.340
1584546495.739,9.277,32.227,22.461,17.578,71.777
1584546495.743,20.508,29.297,23.438,-9.766,25.879
1584546495.747,29.785,28.320,26.855,5.371,42.969
1584546495.751,20.508,30.273,28.320,36.621,39.062
1584546495.755,12.695,29.297,24.902,23.438,16.602
1584546495.759,25.879,25.879,23.926,-5.859,5.859
1584546495.763,38.574,27.832,26.855,0.000,20.020
1584546495.767,26.855,35.645,30.762,30.273,0.488
1584546495.770,9.766,38.086,32.227,37.109,21.973
1584546495.774,17.090,31.250,29.297,11.719,44.434
1584546495.778,33.203,22.949,27.832,-0.488,23.926
1584546495.782,24.414,26.855,28.320,23.926,44.922
1584546495.786,6.836,34.668,27.832,42.480,49.316
1584546495.790,11.719,34.180,28.809,19.043,9.277
1584546495.794,28.809,29.785,30.762,0.488,17.578
1584546495.798,26.367,27.344,27.832,13.184,47.363
1584546495.802,11.230,29.297,28.320,34.180,-7.324
1584546495.806,12.207,30.762,32.227,25.879,-37.598
1584546495.810,25.391,32.227,29.297,-1.953,8.301
1584546495.813,26.855,31.250,28.809,5.859,73.242
1584546495.817,15.137,28.320,30.762,36.133,37.598
1584546495.821,12.207,28.320,32.227,37.109,2.441
1584546495.825,22.461,25.391,30.273,4.883,-16.113
1584546495.829,26.855,23.438,26.367,-2.441,14.160
1584546495.833,20.020,27.832,28.320,30.762,91.309
1584546495.837,6.836,26.367,29.297,38.086,43.457
1584546495.841,11.719,26.855,25.879,2.930,33.691
1584546495.845,22.949,27.832,25.879,-17.578,71.289
1584546495.849,16.113,28.320,24.902,8.301,25.391
1584546495.853,2.441,30.762,24.414,35.156,41.504
1584546495.856,7.812,27.832,23.926,15.137,15.625
1584546495.860,25.391,22.949,23.926,-10.254,-29.297
1584546495.864,23.438,23.926,27.832,9.277,-5.859
1584546495.868,3.418,26.855,31.250,35.156,-48.340
1584546495.872,-1.465,25.879,28.320,20.020,-22.949
1584546495.876,12.695,28.809,26.855,-9.277,51.758
1584546495.880,17.090,27.344,25.879,-3.418,37.598
1584546495.884,3.906,24.414,23.438,26.367,9.277
1584546495.888,-1.953,26.855,24.902,30.273,-3.418
1584546495.892,12.207,26.855,22.949,0.488,13.184
1584546495.895,25.391,28.320,22.949,-3.906,46.387
1584546495.899,17.578,31.738,26.367,30.273,77.148
1584546495.903,6.348,29.785,24.902,40.039,83.984
1584546495.907,14.648,28.809,21.484,9.277,58.594
1584546495.911,25.879,26.855,24.414,-4.395,26.367
1584546495.915,16.602,26.367,28.809,17.090,35.645
1584546495.919,5.859,31.250,29.297,42.480,18.555
1584546495.923,10.254,29.785,28.320,27.344,15.625
1584546495.927,20.996,24.902,26.367,-1.953,-19.531
1584546495.931,29.785,20.996,31.250,24.902,-27.344
1584546495.935,27.344,23.438,34.668,64.453,-0.488
1584546495.938,5.859,28.809,26.855,35.156,6.348
1584546495.942,5.859,30.273,22.949,-14.160,-1.953
1584546495.946,18.066,31.738,24.414,-10.742,-15.137
1584546495.950,6.348,33.203,22.949,23.926,2.930
1584546495.954,1.465,36.621,24.902,34.668,31.250
1584546495.958,14.160,37.598,26.367,6.836,26.855
1584546495.962,27.832,33.203,24.414,-1.465,18.066
1584546495.966,14.648,32.227,26.367,27.832,26.367
1584546495.970,0.977,32.715,28.320,47.363,10.254
1584546495.974,16.602,32.715,28.320,24.902,12.207
1584546495.978,35.156,29.785,26.855,4.395,19.043
1584546495.981,31.250,30.273,26.855,24.902,49.805
1584546495.985,16.602,32.715,29.785,46.875,31.250
1584546495.989,15.625,33.691,30.273,29.297,54.199
1584546495.993,20.996,29.785,27.344,-6.836,55.176
1584546495.997,18.555,26.855,23.926,0.488,18.066
1584546496.001,6.836,31.250,24.414,36.621,49.805
1584546496.005,1.465,33.691,25.391,31.738,71.777
1584546496.009,10.254,30.762,25.391,-0.488,2.441
1584546496.013,18.555,27.344,24.902,-0.488,15.625
1584546496.017,4.883,25.879,27.344,29.785,51.758
1584546496.020,-7.324,24.902,29.785,36.621,43.945
1584546496.024,2.930,23.926,28.320,8.789,31.738
1584546496.028,17.090,22.461,26.855,-2.930,8.789
1584546496.032,11.230,20.508,23.926,21.973,10.254
1584546496.036,-2.930,25.391,21.973,39.062,-21.484
1584546496.040,2.930,28.320,26.855,12.207,-53.711
1584546496.044,18.555,25.879,27.832,-10.254,11.719
1584546496.048,16.602,28.320,27.832,11.719,28.320
1584546496.052,2.441,29.785,28.809,40.527,-2.441
1584546496.056,0.977,25.879,27.344,25.879,-23.926
1584546496.060,10.254,23.438,26.855,-4.395,-40.527
1584546496.063,16.113,24.414,27.832,4.883,57.617
1584546496.067,4.883,23.926,26.855,33.691,43.457
1584546496.071,-3.418,26.855,28.809,28.320,-8.789
1584546496.075,11.230,26.855,26.367,0.000,7.324
1584546496.079,22.949,25.391,21.484,0.977,22.461
1584546496.083,11.719,27.344,25.391,25.391,48.828
1584546496.087,3.418,28.809,29.297,36.621,48.340
1584546496.091,17.090,30.273,26.855,15.137,30.273
1584546496.095,35.645,33.203,26.855,1.465,9.277
1584546496.099,29.785,30.762,28.320,25.879,29.297
1584546496.103,10.742,27.344,25.391,45.410,-18.555
1584546496.106,17.578,29.785,26.855,23.438,-9.277
1584546496.110,33.691,28.809,28.809,-2.441,40.527
1584546496.114,27.832,24.902,29.297,15.137,24.902
1584546496.118,11.719,22.461,30.762,41.992,-3.906
1584546496.122,7.324,23.926,30.273,28.809,3.418
1584546496.126,20.508,27.832,30.762,-3.418,22.949
1584546496.130,28.320,27.344,31.738,2.441,62.500
1584546496.134,14.160,27.344,32.715,36.133,109.863
1584546496.138,9.766,29.297,33.691,38.574,53.223
1584546496.142,24.902,28.809,34.180,8.789,5.859
1584546496.145,29.297,29.297,30.273,0.000,11.230
1584546496.149,17.578,26.855,30.273,25.879,11.719
1584546496.153,9.766,23.438,35.156,37.109,17.578
1584546496.157,13.184,26.367,31.738,7.324,53.711
1584546496.161,26.855,28.320,28.809,-12.207,82.031
1584546496.165,23.438,26.855,29.785,8.789,57.617
1584546496.169,7.812,24.902,28.320,30.762,24.902
1584546496.173,8.301,24.902,28.320,5.371,34.180
1584546496.177,25.391,21.973,29.785,-22.461,14.160
1584546496.181,29.785,21.973,32.715,0.488,7.324
1584546496.185,15.137,23.438,33.691,34.668,-10.254
1584546496.188,8.301,24.414,28.809,26.855,-7.812
1584546496.192,17.090,23.438,25.879,-7.812,-14.160
1584546496.196,21.973,21.484,26.855,-5.859,-67.383
1584546496.200,12.207,27.344,27.832,25.391,-24.902
1584546496.204,7.812,30.762,28.809,33.203,44.922
1584546496.208,18.555,29.785,27.832,4.395,38.574
1584546496.212,28.809,27.344,26.855,-2.930,-4.883
1584546496.216,22.461,27.344,27.344,23.438,-12.695
1584546496.220,8.789,27.832,29.785,34.180,-6.836
1584546496.224,14.160,28.320,31.738,10.742,0.000
1584546496.228,29.785,27.344,27.832,-10.254,24.902
1584546496.231,25.879,25.879,30.273,10.254,31.738
1584546496.235,9.766,24.902,31.738,34.180,-13.672
1584546496.239,12.695,25.879,30.762,22.949,-21.973
1584546496.243,37.598,23.926,35.645,9.766,13.184
1584546496.247,47.363,25.879,33.691,22.461,71.777
1584546496.251,21.484,34.180,27.344,34.180,32.227
1584546496.255,9.766,33.203,26.855,18.066,0.977
1584546496.259,23.438,26.855,23.438,-13.184,53.223
1584546496.263,32.715,26.855,18.555,-9.766,68.359
1584546496.267,23.926,32.227,22.461,22.461,75.684
1584546496.270,11.719,33.203,26.855,25.879,57.617
1584546496.274,28.320,30.762,26.855,4.883,15.137
1584546496.278,41.992,32.715,27.344,-5.371,29.785
1584546496.282,25.391,35.156,30.273,15.625,31.738
1584546496.286,12.695,36.133,31.250,38.574,51.270
1584546496.290,20.020,34.668,31.250,19.531,77.637
1584546496.294,30.273,31.738,29.785,-7.812,56.152
1584546496.298,29.785,30.273,28.809,8.789,35.645
1584546496.302,18.555,31.250,33.691,42.969,0.488
1584546496.306,14.648,28.809,32.227,29.297,50.293
1584546496.310,28.809,25.391,27.344,-4.395,54.199
1584546496.313,33.203,29.785,28.809,3.418,9.766
1584546496.317,19.531,33.691,30.762,33.691,7.812
1584546496.321,12.207,29.297,27.832,27.832,66.895
1584546496.325,25.391,29.785,25.879,-6.836,80.566
1584546496.329,34.668,30.762,28.320,-6.348,57.129
1584546496.333,20.996,32.715,30.762,25.391,44.922
1584546496.337,12.207,30.762,31.250,34.180,-8.301
1584546496.341,23.438,21.973,29.297,7.812,-26.855
1584546496.345,37.109,26.367,31.250,-2.930,19.531
1584546496.349,30.273,34.668,31.738,21.973,57.129
1584546496.353,15.625,34.668,29.785,44.434,68.359
1584546496.356,20.508,34.668,29.297,25.391,20.996
1584546496.360,33.203,32.227,25.391,-1.953,26.855
1584546496.364,35.645,33.691,24.902,18.066,56.641
1584546496.368,23.926,34.668,27.344,42.969,35.156
1584546496.372,18.555,37.598,29.785,28.320,13.184
1584546496.376,28.320,37.598,26.855,-0.488,-12.207
1584546496.380,31.250,32.227,22.949,4.883,8.789
1584546496.384,15.625,33.203,24.414,32.715,-3.418
1584546496.388,6.348,33.203,24.902,30.762,-25.879
1584546496.392,21.484,29.297,25.391,7.324,-10.742
1584546496.395,34.668,29.785,24.414,3.906,47.363
1584546496.399,26.855,33.203,24.902,27.832,20.508
1584546496.403,18.066,33.691,26.855,39.062,5.859
1584546496.407,24.414,35.645,24.414,11.230,46.387
1584546496.411,34.668,33.203,21.484,-17.090,53.223
1584546496.415,32.715,25.391,25.391,-1.953,42.969
1584546496.419,20.996,30.273,29.297,23.926,14.160
1584546496.423,21.484,36.133,26.855,0.488,23.926
1584546496.427,35.645,35.645,23.438,-32.715,34.668
1584546496.431,36.621,34.180,23.926,-20.996,-8.301
1584546496.435,21.973,35.156,25.879,4.883,-36.133
1584546496.438,17.090,33.691,25.879,-4.395,9.277
1584546496.442,26.855,30.273,25.879,-40.527,60.547
1584546496.446,34.668,30.762,29.297,-41.504,64.941
1584546496.450,26.367,30.273,32.715,-6.836,17.578
1584546496.454,18.555,28.809,33.203,-1.465,53.711
1584546496.458,32.227,27.344,30.273,-36.133,32.715
1584546496.462,41.504,29.785,28.320,-50.781,-22.949
1584546496.466,25.391,31.250,28.320,-20.508,21.973
1584546496.470,15.137,33.203,29.785,-1.953,-4.395
1584546496.474,27.832,32.715,32.715,-25.879,-12.207
1584546496.478,43.457,28.320,31.250,-44.922,20.020
1584546496.481,36.621,29.297,32.715,-23.926,15.137
1584546496.485,12.695,35.156,33.203,-6.836,36.133
1584546496.489,10.254,37.598,31.250,-29.785,14.160
1584546496.493,27.832,34.668,32.227,-53.711,-68.359
1584546496.497,28.809,33.203,31.250,-38.086,-12.695
1584546496.501,16.113,30.762,30.762,-10.254,74.707
1584546496.505,12.207,30.273,30.762,-19.531,43.945
1584546496.509,20.996,30.762,29.785,-51.270,34.180
1584546496.513,27.832,27.832,27.832,-51.758,58.105
1584546496.517,17.090,27.832,26.855,-19.531,81.543
1584546496.520,8.301,27.832,26.855,-11.719,50.781
1584546496.524,20.020,27.832,23.438,-40.039,20.996
1584546496.528,36.133,28.320,20.996,-48.828,-8.789
1584546496.532,28.320,30.762,21.973,-22.461,-10.742
1584546496.536,11.230,31.250,27.832,-2.930,15.625
1584546496.540,20.020,33.691,30.273,-24.902,0.000
1584546496.544,35.645,29.785,26.367,-49.316,25.879
1584546496.548,31.738,19.531,26.367,-33.203,6.836
1584546496.552,17.578,25.879,29.297,-5.371,-3.418
1584546496.556,16.113,31.250,28.809,-14.648,46.387
1584546496.560,28.809,23.438,28.809,-44.434,44.434
1584546496.563,29.785,21.973,30.273,-38.574,0.977
1584546496.567,13.672,26.855,31.738,-3.906,2.441
1584546496.571,7.324,25.391,32.227,-4.883,62.012
1584546496.575,22.949,22.949,34.668,-34.668,70.801
1584546496.579,33.203,21.484,34.180,-35.156,43.945
1584546496.583,19.043,20.508,32.227,-7.324,22.461
1584546496.587,8.789,25.391,35.156,2.930,-15.137
1584546496.591,18.066,25.391,33.203,-26.367,-19.531
1584546496.595,30.273,24.414,27.832,-44.922,1.953
1584546496.599,25.391,30.273,27.832,-18.555,45.898
1584546496.603,12.207,30.273,26.367,2.930,60.059
1584546496.606,14.160,26.367,23.438,-22.461,6.348
1584546496.610,28.809,26.855,24.414,-44.922,12.207
1584546496.614,28.809,26.367,23.438,-20.020,7.324
1584546496.618,13.672,26.367,24.902,5.371,-10.742
1584546496.622,13.672,30.273,28.809,-7.812,19.043
1584546496.626,27.832,29.785,28.320,-35.645,26.367
1584546496.630,33.691,26.855,25.879,-31.250,20.020
1584546496.634,23.438,28.320,28.809,0.977,5.371
1584546496.638,12.695,29.297,28.809,0.977,20.996
1584546496.642,21.973,25.879,24.414,-30.762,18.066
1584546496.645,32.227,24.414,27.832,-33.691,-1.953
1584546496.649,21.973,27.344,30.762,-2.930,37.598
1584546496.653,10.742,28.809,30.762,7.812,29.297
1584546496.657,18.555,30.273,31.738,-17.578,-3.418
1584546496.661,34.180,31.738,27.344,-28.320,-25.391
1584546496.665,28.809,31.738,28.320,-0.977,-17.578
1584546496.669,13.672,31.738,30.762,19.531,-53.223
1584546496.673,14.648,28.320,26.367,0.000,-16.602
1584546496.677,28.809,24.414,24.902,-25.391,83.984
1584546496.681,28.809,26.367,26.367,-15.137,35.156
1584546496.685,14.648,29.297,25.391,9.277,-13.184
1584546496.688,21.973,33.203,24.902,8.789,-19.531
1584546496.692,35.156,30.762,30.273,-14.160,28.809
1584546496.696,24.902,24.414,34.180,-21.973,49.805
1584546496.700,-3.418,20.996,35.645,-3.906,6.836
1584546496.704,-12.695,20.020,39.551,0.977,6.348
1584546496.708,5.859,17.090,37.109,-24.902,16.113
1584546496.712,15.137,16.113,36.133,-36.133,30.762
1584546496.716,-1.953,17.090,39.551,-12.695,54.199
1584546496.720,-17.578,15.137,41.016,3.418,73.242
1584546496.724,-10.742,14.648,35.156,-21.973,52.734
1584546496.728,6.348,15.625,32.715,-41.504,-6.836
1584546496.731,7.812,17.578,33.691,-17.578,8.789
1584546496.735,-3.906,22.461,34.668,10.742,40.527
1584546496.739,-2.930,23.438,36.621,-2.441,57.617
1584546496.743,16.113,20.996,35.156,-31.250,43.457
1584546496.747,19.043,24.414,36.621,-17.090,14.160
1584546496.751,0.977,28.320,39.062,17.090,13.184
1584546496.755,-3.906,27.832,40.039,15.625,39.551
1584546496.759,8.301,22.949,40.039,-13.672,71.777
1584546496.763,16.113,24.414,37.598,-16.602,26.855
1584546496.767,7.812,27.344,38.574,14.648,-4.883
1584546496.770,-0.977,25.391,40.039,23.926,19.531
1584546496.774,8.789,26.367,36.133,-3.906,48.340
1584546496.778,19.531,25.879,33.203,-17.090,15.625
1584546496.782,8.301,22.949,36.621,11.230,-7.324
1584546496.786,-3.418,23.926,37.109,29.297,42.480
1584546496.790,4.883,28.320,34.180,1.953,73.242
1584546496.794,20.020,25.879,34.180,-15.625,60.547
1584546496.798,21.484,21.484,34.180,8.789,7.812
1584546496.802,8.789,20.508,33.691,37.598,-53.711
1584546496.806,6.836,21.973,32.227,24.902,-27.344
1584546496.810,17.578,23.926,28.809,-4.395,18.555
1584546496.813,20.020,25.391,29.297,7.324,105.469
1584546496.817,8.301,26.367,30.762,36.133,87.402
1584546496.821,-0.977,27.344,30.762,22.949,1.465
1584546496.825,10.254,27.344,31.738,-9.277,16.113
1584546496.829,18.066,26.367,31.738,-11.230,7.812
1584546496.833,7.812,23.438,32.715,14.648,49.805
1584546496.837,-3.906,22.949,30.762,19.531,47.852
1584546496.841,6.836,24.902,26.855,-5.371,9.766
1584546496.845,24.414,24.414,26.367,-14.648,24.902
1584546496.849,13.672,29.297,30.273,4.395,17.090
1584546496.853,-3.418,33.203,33.691,22.461,-14.648
1584546496.856,0.977,28.809,32.715,8.301,9.766
1584546496.860,17.578,23.438,29.785,-15.625,-7.812
1584546496.864,15.625,25.391,28.809,-2.930,-15.137
1584546496.868,-2.441,26.855,30.762,25.391,9.277
1584546496.872,-4.883,26.367,31.738,13.672,40.039
1584546496.876,10.742,25.391,31.250,-21.484,77.637
1584546496.880,14.160,23.926,32.227,-19.043,52.246
1584546496.884,-4.395,27.832,34.180,14.160,51.270
1584546496.888,-11.230,28.809,32.715,15.137,63.965
1584546496.892,1.953,23.438,29.297,-15.137,28.809
1584546496.895,16.602,26.855,27.832,-18.555,20.996
1584546496.899,8.789,30.273,30.273,12.695,52.734
1584546496.903,-4.883,28.809,32.227,24.902,55.664
1584546496.907,4.395,27.832,27.832,-4.395,12.207
1584546496.911,21.484,28.320,24.902,-21.484,-2.441
1584546496.915,18.066,34.180,27.344,6.348,21.484
1584546496.919,0.000,35.156,28.320,34.180,-11.719
1584546496.923,2.930,31.250,27.344,11.719,4.395
1584546496.927,21.484,31.738,25.879,-16.602,20.508
1584546496.931,20.996,27.832,27.344,0.488,-27.344
1584546496.935,4.883,27.832,30.762,31.250,36.621
1584546496.938,0.977,33.203,31.250,23.438,30.273
1584546496.942,15.137,32.715,26.855,-6.836,-23.926
1584546496.946,22.461,28.320,26.855,-2.930,8.301
1584546496.950,12.207,27.832,29.297,27.832,42.969
1584546496.954,5.371,28.809,30.273,32.227,47.852
1584546496.958,17.578,31.738,31.738,3.418,49.316
1584546496.962,28.809,30.762,31.738,1.953,12.695
1584546496.966,18.066,25.879,30.273,28.809,28.809
1584546496.970,5.859,29.785,29.785,40.527,66.895
1584546496.974,14.648,34.668,33.691,20.508,62.988
1584546496.978,32.715,30.762,35.156,5.371,90.820
1584546496.981,34.668,28.320,35.156,31.250,78.613
1584546496.985,13.672,33.691,30.273,45.898,43.457
1584546496.989,3.418,36.621,23.926,15.625,43.945
1584546496.993,22.461,34.180,27.344,-9.277,81.543
1584546496.997,29.297,34.180,31.250,1.953,55.176
1584546497.001,9.766,37.109,32.227,28.809,44.922
1584546497.005,6.348,34.180,31.738,23.926,60.547
1584546497.009,21.484,27.832,28.809,-6.348,51.758
1584546497.013,26.367,25.391,30.762,-4.395,36.133
1584546497.017,16.113,23.926,34.668,26.367,21.484
1584546497.020,4.395,25.391,34.180,32.715,49.805
1584546497.024,14.160,29.297,31.250,1.953,22.461
1584546497.028,23.926,30.273,27.344,-15.137,13.672
1584546497.032,12.207,29.785,26.367,9.766,35.156
1584546497.036,-1.953,26.367,29.785,30.273,-4.395
1584546497.040,0.977,26.367,31.738,7.812,21.484
1584546497.044,16.113,26.855,29.785,-12.695,22.461
1584546497.048,17.090,29.297,31.738,8.789,23.926
1584546497.052,3.418,31.250,31.250,36.133,38.574
1584546497.056,1.465,27.832,28.320,21.973,50.293
1584546497.060,15.137,27.344,25.879,-6.836,45.410
1584546497.063,16.113,28.320,25.879,0.000,3.418
1584546497.067,0.000,27.832,26.855,29.297,4.395
1584546497.071,-5.859,30.762,26.367,23.926,65.430
1584546497.075,9.766,29.785,25.391,-10.742,65.430
1584546497.079,19.531,22.949,25.879,-7.324,20.996
1584546497.083,9.277,22.461,25.879,25.391,47.852
1584546497.087,-0.977,29.785,28.320,36.133,32.227
1584546497.091,8.789,35.156,26.367,7.324,15.625
1584546497.095,23.438,33.203,26.367,-7.812,21.973
1584546497.099,15.625,29.297,27.832,17.090,11.719
1584546497.103,1.953,31.250,25.391,35.156,14.160
1584546497.106,6.836,33.691,25.391,14.160,5.371
1584546497.110,18.066,27.832,26.367,-11.230,62.500
1584546497.114,17.090,25.879,28.320,6.348,111.816
1584546497.118,4.883,29.297,29.785,30.273,68.848
1584546497.122,0.977,30.762,30.762,15.137,49.805
1584546497.126,12.695,26.367,28.320,-7.324,43.457
1584546497.130,18.555,24.902,26.855,-1.465,67.871
1584546497.134,9.766,30.273,30.273,26.367,52.246
1584546497.138,0.977,28.320,28.809,25.879,10.254
1584546497.142,11.230,23.926,24.414,-1.953,-20.020
1584546497.145,20.996,24.902,23.438,-6.348,-31.250
1584546497.149,9.277,30.273,25.391,21.973,33.691
1584546497.153,0.000,33.203,25.391,35.645,33.691
1584546497.157,10.742,29.785,20.508,4.883,-15.625
1584546497.161,21.484,26.367,19.531,-16.602,3.906
1584546497.165,9.766,25.391,19.043,2.930,1.953
1584546497.169,-6.348,26.855,19.531,24.414,-32.227
1584546497.173,-7.324,26.367,19.043,2.930,13.184
1584546497.177,8.301,24.902,17.090,-23.926,-9.277
1584546497.181,14.648,25.391,20.020,-4.395,0.488
1584546497.185,2.930,26.367,23.926,29.297,15.625
1584546497.188,1.953,25.391,26.367,20.508,-8.301
1584546497.192,20.996,24.902,25.879,-7.812,14.160
1584546497.196,28.809,25.391,26.855,-2.441,-12.207
1584546497.200,10.254,24.414,28.320,22.461,-23.438
1584546497.204,3.906,26.367,29.297,25.879,3.906
1584546497.208,16.602,25.879,27.832,-9.766,17.090
1584546497.212,26.855,23.926,23.926,-21.973,24.902
1584546497.216,17.578,23.438,25.879,15.625,22.949
1584546497.220,3.906,25.391,29.297,35.156,26.855
1584546497.224,8.301,25.879,27.344,5.859,60.547
1584546497.228,23.926,23.926,26.367,-15.137,81.543
1584546497.231,21.484,22.461,25.391,9.766,53.711
1584546497.235,2.930,24.414,26.855,33.203,40.527
1584546497.239,6.836,26.855,30.762,18.066,94.238
1584546497.243,21.973,24.902,30.762,-11.230,100.586
1584546497.247,19.531,20.508,28.320,-2.930,82.031
1584546497.251,8.301,20.996,28.809,27.832,51.758
1584546497.255,4.883,22.461,29.785,20.020,36.133
1584546497.259,19.043,19.531,31.738,-5.859,68.359
1584546497.263,30.762,24.902,31.738,2.441,-26.855
1584546497.267,13.672,27.344,30.273,31.738,-10.254
1584546497.270,0.000,24.902,30.273,34.180,29.785
1584546497.274,11.230,24.902,27.832,2.930,11.230
1584546497.278,28.320,22.461,24.414,-10.254,-7.324
1584546497.282,20.996,23.926,28.809,18.555,-36.133
1584546497.286,6.836,29.297,33.691,36.133,-28.320
1584546497.290,12.695,29.785,30.762,9.766,-6.348
1584546497.294,25.391,24.414,28.320,-10.254,62.012
1584546497.298,20.996,22.949,28.320,3.418,23.926
1584546497.302,6.348,25.391,30.762,29.297,-23.926
1584546497.306,7.812,26.367,29.297,23.926,3.418
1584546497.310,24.902,27.344,26.855,-5.859,55.664
1584546497.313,32.227,28.320,28.809,3.906,64.453
1584546497.317,18.066,28.320,30.762,35.156,43.945
1584546497.321,9.277,26.855,29.297,30.273,37.109
1584546497.325,21.484,23.438,28.809,0.977,53.711
1584546497.329,31.738,21.973,30.273,1.953,75.684
1584546497.333,20.996,21.973,30.273,31.250,35.645
1584546497.337,7.324,21.973,32.715,39.062,15.137
1584546497.341,15.625,19.531,32.715,9.766,17.090
1584546497.345,28.809,20.996,31.250,-6.836,61.035
1584546497.349,19.531,27.344,30.273,16.113,51.758
1584546497.353,9.277,31.738,25.391,36.133,32.227
1584546497.356,20.996,33.203,24.414,18.066,9.766
1584546497.360,33.691,27.832,24.414,-2.930,-21.484
1584546497.364,20.996,23.926,28.809,7.812,35.645
1584546497.368,0.488,25.879,35.156,33.691,24.414
1584546497.372,0.000,24.414,35.645,18.555,-16.602
1584546497.376,18.066,23.438,34.180,-11.719,-3.906
1584546497.380,24.414,24.902,32.715,0.488,1.953
1584546497.384,9.277,26.855,32.227,30.273,-1.465
1584546497.388,4.395,28.320,30.762,28.320,-45.410
1584546497.392,17.090,26.367,27.832,-3.906,-14.648
1584546497.395,27.344,24.414,28.809,-5.859,32.715
1584546497.399,18.555,28.320,30.762,24.414,0.000
1584546497.403,7.812,27.344,28.809,30.762,33.691
1584546497.407,13.672,22.949,31.250,0.977,56.641
1584546497.411,22.461,24.902,30.762,-15.625,29.297
1584546497.415,18.555,27.344,27.832,8.789,18.555
1584546497.419,7.812,27.832,31.738,34.668,-12.695
1584546497.423,6.836,26.855,31.738,13.672,3.418
1584546497.427,21.484,22.461,30.762,-14.648,34.180
1584546497.431,22.461,20.996,31.250,1.953,-7.812
1584546497.435,6.836,26.855,32.227,31.738,-18.555
1584546497.438,7.324,30.273,33.203,21.973,9.766
1584546497.442,19.043,30.762,29.785,-6.348,12.207
1584546497.446,20.996,27.344,26.855,-3.418,60.059
1584546497.450,9.277,25.879,25.879,22.949,77.148
1584546497.454,-1.465,30.273,26.855,24.414,42.480
1584546497.458,12.207,29.297,29.297,-3.418,38.086
1584546497.462,24.414,26.855,27.832,-8.789,30.762
1584546497.466,16.113,30.762,29.785,23.438,12.207
1584546497.470,2.441,30.273,33.203,37.109,6.348
1584546497.474,11.719,27.832,30.273,8.789,36.621
1584546497.478,28.809,26.855,29.297,-6.836,44.434
1584546497.481,16.602,24.902,29.785,13.672,64.941
1584546497.485,2.441,28.320,30.273,37.598,78.613
1584546497.489,10.742,29.785,28.809,21.973,28.809
1584546497.493,22.461,26.855,26.855,-11.719,4.395
1584546497.497,20.996,29.785,28.320,0.000,49.805
1584546497.501,9.766,33.203,31.738,34.668,9.766
1584546497.505,4.395,32.715,30.273,23.926,7.324
1584546497.509,19.531,31.738,25.879,-6.348,74.707
1584546497.513,25.391,31.738,24.902,-3.906,45.410
1584546497.517,9.277,33.203,27.344,29.785,79.590
1584546497.520,1.465,32.715,32.227,39.062,75.684
1584546497.524,8.301,31.738,32.227,3.906,29.785
1584546497.528,18.066,32.227,28.320,-14.648,6.836
1584546497.532,6.348,34.180,27.832,7.812,2.441
1584546497.536,-4.883,33.691,26.855,21.484,3.418
1584546497.540,5.859,30.762,25.391,-6.836,-25.879
1584546497.544,19.531,29.785,26.367,-22.949,18.066
1584546497.548,14.648,30.762,26.855,1.953,11.230
1584546497.552,-0.488,28.320,29.297,24.902,19.531
1584546497.556,0.488,24.414,30.273,6.836,61.523
1584546497.560,11.719,24.902,25.391,-28.809,6.836
1584546497.563,13.672,24.902,25.879,-23.926,-8.301
1584546497.567,1.953,24.414,29.297,4.883,-20.996
1584546497.571,0.977,26.855,28.320,-2.930,-17.578
1584546497.575,15.625,24.414,25.879,-34.668,7.812
1584546497.579,22.949,24.902,24.414,-31.738,56.641
1584546497.583,13.184,28.809,21.973,-2.441,56.152
1584546497.587,0.977,27.832,23.926,3.418,1.465
1584546497.591,10.742,28.320,26.855,-18.555,-15.137
1584546497.595,24.902,25.391,26.855,-29.297,37.598
1584546497.599,15.137,23.926,27.344,-3.906,46.875
1584546497.603,2.930,27.344,28.809,22.949,17.090
1584546497.606,7.324,26.367,27.832,0.977,44.434
1584546497.610,19.043,23.438,27.344,-26.367,62.012
1584546497.614,20.996,23.926,29.785,-4.883,13.672
1584546497.618,5.859,26.855,31.250,20.996,43.457
1584546497.622,2.930,26.367,30.762,7.324,54.199
1584546497.626,22.949,22.461,29.785,-26.367,-25.391
1584546497.630,29.297,23.926,31.738,-24.414,38.574
1584546497.634,11.719,26.367,33.203,8.789,59.570
1584546497.638,5.371,27.344,30.273,8.789,-4.883
1584546497.642,17.578,29.297,27.832,-22.949,23.438
1584546497.645,25.879,26.367,25.879,-27.344,16.113
1584546497.649,11.719,27.832,27.344,-2.930,-47.852
1584546497.653,-4.395,29.297,29.297,7.812,-38.086
1584546497.657,5.371,25.391,28.809,-20.020,20.508
1584546497.661,18.066,24.902,28.320,-40.039,33.691
1584546497.665,14.160,28.320,25.879,-11.230,-10.742
1584546497.669,3.906,30.273,29.785,17.090,-13.184
1584546497.673,5.371,28.809,33.691,-5.371,-11.719
1584546497.677,17.090,27.832,29.785,-33.691,8.789
1584546497.681,18.555,28.809,30.273,-12.695,52.734
1584546497.685,1.465,27.344,33.691,18.555,80.078
1584546497.688,-1.465,28.809,32.227,4.883,75.684
1584546497.692,15.625,28.320,32.227,-26.855,57.129
1584546497.696,19.531,26.367,33.203,-21.973,40.039
1584546497.700,5.371,25.879,33.203,6.836,71.289
1584546497.704,-0.488,20.996,34.668,9.277,89.355
1584546497.708,12.695,24.414,33.203,-20.020,31.250
1584546497.712,24.414,28.809,29.785,-25.391,9.277
1584546497.716,15.625,29.297,32.715,5.371,13.672
1584546497.720,0.977,28.320,32.715,16.113,30.273
1584546497.724,8.301,28.809,30.762,-8.789,9.766
1584546497.728,22.461,28.809,31.250,-25.879,-38.574
1584546497.731,20.508,31.250,31.738,-7.324,-19.043
1584546497.735,7.812,33.203,31.250,13.184,31.250
1584546497.739,4.883,27.832,29.297,-11.230,-35.156
1584546497.743,19.531,27.344,27.344,-41.504,-37.598
1584546497.747,23.926,27.832,28.809,-24.902,49.316
1584546497.751,8.301,25.391,33.203,6.836,55.664
1584546497.755,5.859,26.367,33.691,-2.930,62.012
1584546497.759,22.949,25.879,32.715,-31.738,74.219
1584546497.763,28.320,25.391,30.273,-30.762,17.578
1584546497.767,17.090,25.879,30.273,-6.836,19.043
1584546497.770,10.742,25.879,33.691,0.977,64.941
1584546497.774,18.555,22.949,33.691,-29.297,52.734
1584546497.778,26.367,20.508,29.297,-51.758,23.438
1584546497.782,20.020,25.391,27.344,-27.344,-1.465
1584546497.786,10.742,28.809,31.738,-4.395,25.391
1584546497.790,17.578,27.344,34.668,-22.461,41.504
1584546497.794,29.785,26.367,32.715,-41.992,64.453
1584546497.798,27.344,25.391,32.715,-25.391,75.195
1584546497.802,18.066,31.250,30.273,0.977,20.508
1584546497.806,25.391,34.180,24.902,-6.836,7.812
1584546497.810,32.715,25.879,26.367,-39.551,-26.367
1584546497.813,20.996,21.484,28.809,-38.574,-72.754
1584546497.817,6.348,24.902,31.738,-3.906,13.672
1584546497.821,1.953,27.344,32.715,-10.254,54.688
1584546497.825,11.230,25.879,27.832,-46.387,49.805
1584546497.829,24.414,29.297,28.320,-42.480,20.508
1584546497.833,16.113,33.203,29.785,-8.301,9.766
1584546497.837,5.371,30.762,29.785,0.000,-7.324
1584546497.841,18.066,30.273,28.320,-27.344,-10.742
1584546497.845,28.320,31.250,27.832,-42.969,0.000
1584546497.849,18.066,29.785,29.785,-14.160,-8.789
1584546497.853,6.348,32.715,29.297,6.836,13.672
1584546497.856,12.695,29.785,27.832,-14.648,21.484
1584546497.860,23.926,26.855,25.879,-38.086,-15.137
1584546497.864,24.902,32.227,27.344,-17.578,42.969
1584546497.868,14.648,32.715,27.344,3.906,91.309
1584546497.872,12.207,31.250,23.438,-13.672,20.508
1584546497.876,28.809,32.227,25.391,-36.621,-7.812
1584546497.880,38.574,27.832,26.367,-32.715,0.488
1584546497.884,22.949,27.832,28.320,-4.395,32.715
1584546497.888,13.672,30.762,29.785,-3.906,8.789
1584546497.892,27.344,27.344,28.320,-36.621,17.578
1584546497.895,37.598,26.367,21.484,-43.457,58.594
1584546497.899,29.297,33.203,18.066,-12.207,44.434
1584546497.903,21.484,35.645,23.926,0.000,9.766
1584546497.907,29.297,33.203,26.367,-30.273,15.625
1584546497.911,41.992,30.273,26.855,-48.340,70.801
1584546497.915,35.645,30.762,27.832,-26.855,91.797
1584546497.919,21.484,33.691,30.762,-2.441,46.387
1584546497.923,22.949,32.227,31.250,-21.973,16.602
1584546497.927,36.621,28.320,26.855,-54.688,25.391
1584546497.931,34.180,25.391,25.391,-41.504,10.254
1584546497.935,13.184,27.832,27.344,-15.625,-21.973
1584546497.938,10.254,25.391,29.785,-25.391,-2.930
1584546497.942,23.438,21.973,29.297,-52.734,-1.953
1584546497.946,26.367,23.926,26.855,-49.805,8.301
1584546497.950,10.254,21.484,26.855,-19.531,33.691
1584546497.954,4.395,25.391,28.320,-15.137,39.062
1584546497.958,20.996,27.832,27.344,-50.781,49.805
1584546497.962,28.809,24.902,25.879,-59.082,17.090
1584546497.966,20.020,27.832,29.297,-24.414,53.711
1584546497.970,8.789,25.879,30.273,-8.789,75.195
1584546497.974,12.207,20.508,25.879,-36.133,6.836
1584546497.978,24.902,20.996,24.902,-57.129,0.488
1584546497.981,20.996,23.926,27.344,-30.762,6.348
1584546497.985,2.441,21.484,24.414,-8.789,-19.043
1584546497.989,-2.930,18.066,21.484,-31.250,27.832
1584546497.993,12.695,19.043,26.855,-55.664,51.270
1584546497.997,14.160,23.438,30.273,-43.457,5.859
1584546498.001,-2.930,22.461,29.297,-16.113,35.645
1584546498.005,-6.348,19.043,30.762,-26.855,62.012
1584546498.009,10.254,20.020,31.250,-53.711,30.762
1584546498.013,20.996,22.461,28.320,-44.434,54.688
1584546498.017,5.859,22.949,29.785,-15.137,62.988
1584546498.020,-6.348,20.996,30.273,-12.207,-5.371
1584546498.024,11.230,22.949,28.320,-39.551,-41.992
1584546498.028,27.832,26.367,27.832,-49.805,12.207
1584546498.032,17.090,24.414,26.855,-27.344,31.738
1584546498.036,5.371,25.879,27.832,-16.602,-7.324
1584546498.040,12.207,25.391,26.855,-46.387,-5.371
1584546498.044,29.785,21.484,27.344,-73.242,-9.277
1584546498.048,26.855,23.926,28.320,-58.594,8.789
1584546498.052,4.883,24.414,28.320,-40.527,63.477
1584546498.056,9.766,25.391,29.297,-57.617,53.223
1584546498.060,32.715,27.344,28.320,-84.473,27.832
1584546498.063,34.180,17.578,27.344,-81.543,2.930
1584546498.067,17.578,14.648,29.297,-55.176,-12.207
1584546498.071,7.812,24.414,27.832,-62.500,54.688
1584546498.075,17.090,21.973,28.320,-96.680,67.871
1584546498.079,38.086,14.160,28.809,-84.473,29.785
1584546498.083,33.691,19.531,30.273,-50.781,24.902
1584546498.087,8.789,36.621,29.785,-71.777,-20.020
1584546498.091,5.371,36.621,25.879,-124.512,36.133
1584546498.095,20.996,30.762,23.926,-138.184,53.223
1584546498.099,17.090,36.621,28.809,-103.516,7.812
1584546498.103,-0.977,38.086,23.926,-86.426,44.434
1584546498.106,8.301,33.203,20.996,-113.281,48.340
1584546498.110,25.391,28.320,23.926,-134.766,53.711
1584546498.114,20.020,30.762,20.508,-117.188,30.273
1584546498.118,4.883,30.273,19.531,-87.891,46.387
1584546498.122,8.789,27.832,22.949,-98.145,46.875
1584546498.126,30.273,28.809,28.320,-125.000,19.531
1584546498.130,27.832,28.809,26.367,-118.164,13.184
1584546498.134,2.441,32.715,24.414,-93.750,49.805
1584546498.138,1.465,35.645,27.344,-96.680,63.965
1584546498.142,22.461,22.461,28.809,-121.094,10.254
1584546498.145,23.926,18.066,27.344,-121.582,21.973
1584546498.149,9.766,34.180,24.902,-92.285,8.789
1584546498.153,0.000,38.574,22.949,-83.984,-22.949
1584546498.157,15.137,39.551,25.391,-110.352,29.785
1584546498.161,27.832,34.668,26.855,-124.023,44.922
1584546498.165,20.020,23.926,22.461,-101.562,11.230
1584546498.169,10.254,28.809,22.949,-76.660,58.594
1584546498.173,10.254,36.133,24.414,-98.633,78.125
1584546498.177,20.996,23.438,23.926,-124.512,-2.441
1584546498.181,18.066,17.578,24.902,-107.422,20.996
1584546498.185,3.906,29.297,25.391,-77.148,58.105
1584546498.188,1.953,31.738,25.879,-89.355,17.090
1584546498.192,20.508,29.785,28.320,-120.605,0.977
1584546498.196,30.273,32.715,31.250,-116.211,29.785
1584546498.200,20.508,28.809,30.273,-87.891,0.977
1584546498.204,14.648,23.438,31.738,-80.566,-27.344
1584546498.208,22.461,30.762,33.203,-108.887,24.902
1584546498.212,26.855,35.645,29.785,-120.605,23.926
1584546498.216,19.531,20.996,31.250,-91.309,41.016
1584546498.220,16.602,17.578,37.109,-68.848,52.246
1584546498.224,21.973,26.855,34.668,-98.145,8.301
1584546498.228,29.297,24.414,28.320,-125.977,45.898
1584546498.231,27.344,27.832,31.738,-101.074,54.199
1584546498.235,10.742,29.785,32.227,-80.078,-8.789
1584546498.239,7.324,20.996,26.367,-104.980,-13.672
1584546498.243,20.996,20.996,24.414,-134.277,22.461
1584546498.247,25.391,36.621,33.691,-112.305,47.852
1584546498.251,11.719,42.969,31.738,-79.102,32.227
1584546498.255,2.441,29.297,23.438,-94.727,48.340
1584546498.259,16.602,23.926,27.344,-128.418,42.969
1584546498.263,22.461,34.180,26.367,-127.930,41.992
1584546498.267,11.230,33.203,27.344,-93.262,42.480
1584546498.270,7.324,34.180,29.785,-87.891,60.547
1584546498.274,15.137,30.762,26.855,-118.164,69.824
1584546498.278,19.531,25.391,25.391,-128.906,51.758
1584546498.282,8.789,30.762,25.879,-99.609,88.867
1584546498.286,1.465,16.113,26.855,-77.148,113.281
1584546498.290,19.043,0.977,31.738,-99.121,45.410
1584546498.294,32.227,28.809,32.227,-114.258,23.926
1584546498.298,22.949,41.992,27.832,-99.609,47.852
1584546498.302,1.953,36.621,25.879,-90.820,31.738
1584546498.306,0.488,37.109,24.902,-112.305,65.430
1584546498.310,26.855,40.527,24.414,-133.789,72.266
1584546498.313,32.715,35.156,25.879,-117.188,34.180
1584546498.317,10.254,29.785,27.344,-90.820,-1.465
1584546498.321,1.465,29.785,26.855,-94.238,15.625
1584546498.325,21.973,26.367,24.902,-117.676,14.160
1584546498.329,32.227,25.391,27.344,-121.094,4.395
1584546498.333,3.418,25.391,29.297,-104.492,17.578
1584546498.337,0.000,26.855,28.809,-97.656,58.105
1584546498.341,21.973,25.879,29.297,-122.559,58.594
1584546498.345,27.832,23.438,28.320,-144.531,12.695
1584546498.349,15.625,25.391,27.344,-120.117,36.133
1584546498.353,-0.977,29.785,27.344,-99.609,55.664
1584546498.356,8.789,28.320,25.391,-121.094,45.898
1584546498.360,27.832,27.832,23.926,-140.137,2.930
1584546498.364,25.391,28.320,23.926,-120.605,-0.488
1584546498.368,5.859,23.926,26.367,-94.727,-13.184
1584546498.372,3.418,24.902,27.832,-111.328,-0.488
1584546498.376,21.484,24.414,27.832,-137.695,-23.438
1584546498.380,27.832,23.926,27.832,-129.883,-37.598
1584546498.384,16.113,27.832,30.273,-102.051,-0.488
1584546498.388,7.812,30.273,33.203,-98.145,-9.766
1584546498.392,17.578,26.855,30.762,-124.512,-9.766
1584546498.395,20.996,25.391,25.391,-127.930,19.531
1584546498.399,10.254,19.043,26.855,-101.074,-12.695
1584546498.403,8.789,18.066,29.785,-85.449,46.875
1584546498.407,19.531,26.855,28.320,-113.281,119.629
1584546498.411,32.227,26.367,28.320,-138.184,59.082
1584546498.415,25.391,25.879,27.832,-112.305,15.137
1584546498.419,12.695,27.832,27.832,-85.938,35.156
1584546498.423,12.207,29.297,28.809,-113.770,11.719
1584546498.427,29.297,25.391,31.250,-141.113,15.625
1584546498.431,32.227,20.996,32.227,-121.094,27.344
1584546498.435,9.277,26.855,29.785,-96.680,-10.742
1584546498.438,4.395,29.297,26.855,-107.422,15.625
1584546498.442,21.973,26.367,24.902,-136.719,32.715
1584546498.446,28.809,24.414,26.855,-131.348,36.621
1584546498.450,20.020,21.973,28.320,-97.168,58.594
1584546498.454,10.254,12.695,22.461,-98.145,43.945
1584546498.458,20.996,8.789,22.949,-129.883,-1.465
1584546498.462,29.297,18.555,30.273,-128.906,15.137
1584546498.466,18.066,27.344,28.320,-100.098,9.766
1584546498.470,8.789,33.691,27.832,-92.773,-16.602
1584546498.474,16.113,35.156,32.715,-116.211,13.184
1584546498.478,32.715,31.738,30.273,-130.859,0.000
1584546498.481,27.832,29.297,25.879,-111.816,36.621
1584546498.485,14.160,28.809,27.344,-91.797,48.828
1584546498.489,14.648,27.344,31.250,-113.281,14.160
1584546498.493,25.391,28.320,29.785,-141.602,63.477
1584546498.497,24.902,25.391,29.297,-127.930,33.691
1584546498.501,15.137,22.461,28.809,-100.098,52.734
1584546498.505,12.695,25.879,27.344,-107.910,8.789
1584546498.509,20.020,24.414,26.367,-139.160,-30.762
1584546498.513,28.320,23.438,24.902,-135.742,6.348
1584546498.517,17.090,29.297,26.367,-103.516,2.441
1584546498.520,10.254,28.320,31.738,-98.633,70.312
1584546498.524,22.461,22.949,31.250,-127.441,62.500
1584546498.528,28.809,23.926,27.344,-141.113,26.367
1584546498.532,18.066,28.809,29.785,-111.816,5.371
1584546498.536,5.371,31.250,33.691,-87.891,3.906
1584546498.540,10.254,26.367,28.809,-111.816,54.199
1584546498.544,24.414,25.879,22.461,-131.836,44.922
1584546498.548,17.578,28.809,25.391,-109.863,-20.020
1584546498.552,1.953,28.320,26.855,-83.008,-67.383
1584546498.556,2.930,27.344,23.438,-98.633,-72.266
1584546498.560,18.066,26.855,23.926,-124.023,-0.977
1584546498.563,19.531,27.344,27.344,-114.746,54.199
1584546498.567,3.906,30.762,29.297,-84.473,14.160
1584546498.571,-0.977,30.273,26.855,-87.402,-50.781
1584546498.575,13.672,29.297,22.949,-122.559,-32.715
1584546498.579,20.996,30.273,25.879,-123.047,-6.348
1584546498.583,7.324,28.320,29.297,-88.867,-15.625
1584546498.587,-1.953,27.832,31.250,-77.148,-7.324
1584546498.591,12.207,30.762,31.250,-102.051,9.277
1584546498.595,28.809,34.180,29.785,-108.887,36.621
1584546498.599,17.090,34.180,27.832,-89.355,14.648
1584546498.603,0.977,35.645,27.344,-77.637,14.648
1584546498.606,10.254,35.645,25.879,-96.191,17.578
1584546498.610,25.391,31.738,26.367,-110.840,22.949
1584546498.614,21.484,33.203,28.320,-88.867,-4.395
1584546498.618,4.883,32.227,28.809,-69.336,-9.277
1584546498.622,0.977,30.762,29.785,-86.426,-19.531
1584546498.626,17.578,29.785,27.832,-110.352,-14.648
1584546498.630,24.902,31.250,31.738,-97.656,56.152
1584546498.634,9.277,33.203,35.645,-68.848,82.520
1584546498.638,3.906,33.691,30.273,-72.754,69.824
1584546498.642,18.555,32.227,26.367,-103.027,68.359
1584546498.645,24.902,31.250,27.344,-107.422,40.039
1584546498.649,13.184,33.691,25.879,-78.613,12.207
1584546498.653,7.324,32.715,27.832,-65.430,25.391
1584546498.657,19.043,29.297,27.832,-91.309,31.738
1584546498.661,32.227,27.344,23.926,-109.863,34.180
1584546498.665,26.855,29.297,25.879,-89.355,41.504
1584546498.669,12.695,31.738,28.809,-59.082,71.777
1584546498.673,14.160,27.344,28.809,-83.496,53.711
1584546498.677,25.391,24.902,27.832,-120.117,29.785
1584546498.681,22.461,26.855,28.809,-102.539,60.547
1584546498.685,7.812,27.344,30.762,-77.148,62.500
1584546498.688,5.371,23.438,27.344,-90.332,27.832
1584546498.692,19.531,20.996,25.391,-117.188,36.133
1584546498.696,22.949,23.926,24.414,-112.305,54.199
1584546498.700,9.277,26.367,24.414,-84.473,41.016
1584546498.704,6.836,26.367,28.320,-78.613,6.836
1584546498.708,21.973,23.926,27.832,-104.980,14.648
1584546498.712,27.344,24.414,28.320,-121.582,57.617
1584546498.716,16.602,27.344,31.738,-92.285,23.438
1584546498.720,7.324,25.879,30.762,-76.172,24.414
1584546498.724,12.207,24.414,27.832,-105.957,3.906
1584546498.728,26.855,25.391,29.785,-120.117,0.000
1584546498.731,19.531,22.949,28.320,-101.074,58.594
1584546498.735,-3.418,17.090,24.902,-92.285,40.039
1584546498.739,-1.953,19.531,26.367,-118.164,29.785
1584546498.743,14.648,25.391,26.855,-139.160,86.914
1584546498.747,17.578,26.367,26.855,-121.582,1.953
1584546498.751,6.836,28.809,26.367,-94.727,-7.812
1584546498.755,-9.766,24.902,26.855,-120.117,84.961
1584546498.759,-8.301,28.809,24.902,-159.180,56.641
1584546498.763,-5.859,30.762,20.508,-155.273,5.859
1584546498.767,-27.344,23.926,25.391,-130.859,-14.648
1584546498.770,-37.598,25.879,26.367,-130.371,0.488
1584546498.774,-35.645,23.926,23.438,-173.828,40.039
1584546498.778,-32.715,20.508,25.879,-192.383,-8.301
1584546498.782,-43.457,23.926,28.809,-164.551,-36.621
1584546498.786,-64.941,30.273,26.855,-152.832,26.367
1584546498.790,-65.918,30.762,25.879,-183.594,10.254
1584546498.794,-53.711,28.320,25.391,-202.637,-1.953
1584546498.798,-61.035,26.855,24.414,-189.941,-8.789
1584546498.802,-79.102,27.344,23.926,-176.270,-1.465
1584546498.806,-78.613,31.250,25.879,-185.059,19.531
1584546498.810,-63.477,29.297,23.926,-211.426,20.020
1584546498.813,-58.594,25.879,24.902,-201.172,-9.277
1584546498.817,-66.406,25.879,28.809,-162.109,24.414
1584546498.821,-62.988,21.484,27.832,-157.715,25.391
1584546498.825,-51.270,18.066,26.367,-184.570,11.719
1584546498.829,-44.922,19.043,27.832,-184.082,3.906
1584546498.833,-51.270,21.973,30.273,-148.438,-12.695
1584546498.837,-49.805,21.484,30.273,-131.836,6.348
1584546498.841,-28.809,18.555,26.855,-153.809,3.418
1584546498.845,-6.836,21.484,24.414,-164.062,49.805
1584546498.849,-7.324,26.855,26.855,-121.582,63.477
1584546498.853,-9.277,23.438,31.738,-80.566,69.336
1584546498.856,9.766,21.484,33.691,-95.703,58.105
1584546498.860,27.344,25.391,29.297,-115.723,-12.207
1584546498.864,32.227,26.855,28.320,-77.637,-51.270
1584546498.868,30.273,26.855,34.668,-26.367,-41.992
1584546498.872,35.645,26.855,34.180,-30.762,14.160
1584546498.876,49.805,25.391,29.297,-60.059,41.504
1584546498.880,58.105,24.902,27.344,-45.898,6.836
1584546498.884,53.223,27.832,28.320,-4.883,25.879
1584546498.888,52.246,28.320,31.738,-1.953,38.086
1584546498.892,63.965,27.832,29.785,-34.180,-1.465
1584546498.895,72.266,28.809,30.273,-31.250,25.391
1584546498.899,67.383,27.344,32.715,5.859,64.453
1584546498.903,59.082,26.855,31.250,12.207,38.574
1584546498.907,68.359,28.809,34.180,-14.160,42.480
1584546498.911,84.961,28.809,35.645,-24.414,78.613
1584546498.915,77.148,27.344,36.621,1.953,82.520
1584546498.919,61.035,28.320,38.574,21.484,69.336
1584546498.923,68.359,27.832,36.621,-7.812,46.875
1584546498.927,82.031,25.879,33.691,-36.133,49.316
1584546498.931,73.242,27.344,30.762,-23.438,14.648
1584546498.935,55.664,30.273,30.762,-5.371,0.000
1584546498.938,54.199,30.273,35.156,-20.996,53.223
1584546498.942,66.406,29.297,33.203,-48.340,47.852
1584546498.946,68.848,27.344,30.273,-37.109,1.465
1584546498.950,53.223,28.809,31.250,-4.883,35.645
1584546498.954,43.945,28.809,34.668,3.906,72.266
1584546498.958,58.105,26.855,35.156,-19.531,40.527
1584546498.962,71.289,25.879,33.203,-25.391,76.172
1584546498.966,61.523,27.344,34.668,2.441,93.262
1584546498.970,48.828,27.832,34.668,10.742,8.301
1584546498.974,53.223,26.367,32.227,-19.531,-7.812
1584546498.978,63.477,24.414,31.738,-35.645,-32.715
1584546498.981,59.570,21.973,36.133,-7.812,-36.133
1584546498.985,44.434,23.926,38.086,15.625,40.039
1584546498.989,46.387,26.367,36.621,-0.977,-9.277
1584546498.993,63.965,25.391,36.133,-32.227,-53.223
1584546498.997,63.477,28.320,33.691,-23.926,-3.418
1584546499.001,46.387,31.738,35.156,13.184,-25.391
1584546499.005,40.039,28.320,35.156,8.789,-7.324
1584546499.009,52.734,26.855,30.273,-20.020,41.504
1584546499.013,59.570,29.297,31.738,-23.926,11.719
1584546499.017,46.387,33.691,36.133,3.418,-17.578
1584546499.020,36.621,34.180,37.598,13.672,8.789
1584546499.024,47.852,31.738,36.621,-10.254,43.945
1584546499.028,57.617,29.297,32.227,-11.719,-3.418
1584546499.032,46.387,28.320,30.273,22.461,-5.859
1584546499.036,33.203,29.297,31.738,39.551,14.648
1584546499.040,37.598,28.320,33.203,9.766,22.949
1584546499.044,51.270,26.855,34.668,-10.254,26.855
1584546499.048,45.898,27.832,34.180,11.230,4.395
1584546499.052,29.785,32.227,33.203,27.344,37.109
1584546499.056,29.297,28.809,33.691,3.418,55.176
1584546499.060,40.527,25.879,34.180,-39.551,20.508
1584546499.063,41.016,25.879,33.203,-44.922,6.348
1584546499.067,25.879,26.855,31.738,-21.484,39.551
1584546499.071,23.926,30.273,33.203,-22.949,57.617
1584546499.075,39.551,28.809,32.227,-51.270,8.301
1584546499.079,44.922,25.879,30.273,-57.129,1.953
1584546499.083,31.250,28.320,30.762,-35.645,31.738
1584546499.087,21.973,29.785,31.738,-27.832,52.734
1584546499.091,33.691,28.320,31.738,-53.711,43.945
1584546499.095,42.969,28.320,29.785,-72.266,25.391
1584546499.099,31.738,30.273,29.785,-46.387,22.461
1584546499.103,17.090,31.738,30.762,-30.762,6.836
1584546499.106,22.949,26.367,29.297,-61.523,1.465
1584546499.110,38.086,21.484,27.832,-88.867,6.836
1584546499.114,32.715,25.879,26.855,-67.383,31.738
1584546499.118,13.672,27.832,28.809,-44.434,35.156
1584546499.122,10.254,26.855,29.297,-64.941,17.090
1584546499.126,24.902,25.391,28.809,-91.309,41.016
1584546499.130,27.344,23.926,27.832,-85.938,60.059
1584546499.134,9.277,26.367,29.297,-55.664,5.371
1584546499.138,2.930,24.902,31.250,-54.688,39.551
1584546499.142,16.602,22.949,26.855,-85.449,32.715
1584546499.145,26.367,25.391,26.367,-87.891,31.738
1584546499.149,15.137,26.367,26.367,-58.105,51.758
1584546499.153,5.371,24.414,25.391,-45.898,-21.973
1584546499.157,17.090,24.414,25.879,-74.219,20.996
1584546499.161,32.227,27.344,24.414,-92.773,44.434
1584546499.165,27.344,29.297,26.855,-72.266,41.504
1584546499.169,13.184,28.320,30.273,-52.246,-2.441
1584546499.173,19.531,27.344,28.320,-82.520,-14.160
1584546499.177,35.156,26.367,27.344,-114.746,44.434
1584546499.181,38.086,27.832,29.297,-87.891,-14.648
1584546499.185,25.391,32.227,31.738,-54.688,-26.367
1584546499.188,15.137,31.738,28.809,-72.266,30.762
1584546499.192,26.367,27.344,25.879,-102.539,37.598
1584546499.196,34.668,30.273,30.273,-93.262,30.762
1584546499.200,20.996,27.832,32.715,-63.965,15.137
1584546499.204,15.625,25.879,31.738,-68.359,2.441
1584546499.208,30.762,30.762,32.227,-96.680,43.457
1584546499.212,40.039,31.738,31.250,-95.215,70.801
1584546499.216,29.297,30.273,31.738,-66.895,-23.926
1584546499.220,20.020,32.227,32.715,-56.641,-64.453
1584546499.224,27.344,33.691,31.250,-76.660,21.973
1584546499.228,41.016,32.227,30.762,-90.820,49.805
1584546499.231,41.016,33.203,30.273,-64.453,13.184
1584546499.235,28.809,35.156,31.738,-30.762,45.898
1584546499.239,23.438,33.691,35.156,-55.176,44.434
1584546499.243,31.250,28.809,34.180,-94.727,20.996
1584546499.247,29.297,25.391,36.133,-81.543,11.230
1584546499.251,11.719,25.879,38.574,-61.523,-11.719
1584546499.255,9.766,25.879,35.156,-77.148,33.203
1584546499.259,28.809,24.902,29.785,-101.074,23.438
1584546499.263,35.156,22.949,30.273,-93.750,2.930
1584546499.267,14.648,22.949,33.203,-60.547,57.617
1584546499.270,4.883,23.438,28.809,-51.270,41.016
1584546499.274,16.602,24.902,25.391,-75.684,22.949
1584546499.278,27.344,25.879,26.367,-77.148,34.180
1584546499.282,15.625,27.344,26.855,-42.969,44.434
1584546499.286,6.348,27.832,28.809,-19.531,89.355
1584546499.290,21.484,27.344,28.809,-35.156,48.340
1584546499.294,36.621,29.297,27.832,-49.316,38.086
1584546499.298,27.832,30.762,29.297,-21.973,91.797
1584546499.302,18.066,31.738,31.250,11.719,35.645
1584546499.306,25.391,31.738,30.762,-0.977,-1.953
1584546499.310,36.621,28.320,27.344,-27.832,10.742
1584546499.313,33.691,26.855,27.832,-12.695,1.465
1584546499.317,16.602,32.227,28.809,14.648,25.391
1584546499.321,14.160,32.715,22.949,-2.441,19.531
1584546499.325,32.715,28.320,22.949,-39.551,6.836
1584546499.329,39.062,27.832,24.414,-39.551,-8.789
1584546499.333,21.973,31.250,23.926,-11.230,-13.672
1584546499.337,9.766,33.203,25.391,1.465,54.688
1584546499.341,19.531,33.691,26.855,-26.367,14.160
1584546499.345,30.273,28.320,26.855,-44.922,-55.176
1584546499.349,20.508,25.391,24.414,-17.090,17.578
1584546499.353,7.324,33.203,25.391,6.348,67.383
1584546499.356,16.113,35.645,26.367,-15.625,22.949
1584546499.360,33.691,32.715,25.879,-29.785,64.941
1584546499.364,29.297,32.715,25.879,0.977,64.453
1584546499.368,12.695,31.738,25.879,27.832,-24.414
1584546499.372,13.184,32.715,27.832,16.602,7.812
1584546499.376,28.809,32.715,27.832,-11.230,24.902
1584546499.380,31.250,29.297,29.297,-9.277,-5.859
1584546499.384,15.625,31.250,36.133,21.973,26.855
1584546499.388,10.742,32.227,34.180,25.879,40.527
1584546499.392,26.367,29.297,26.855,7.812,-6.348
1584546499.395,35.645,29.297,26.367,20.996,4.883
1584546499.399,20.020,29.297,28.809,58.594,26.855
1584546499.403,7.812,28.320,30.273,77.148,21.973
1584546499.407,16.602,25.879,28.320,62.500,63.965
1584546499.411,26.855,22.949,27.832,51.270,43.457
1584546499.415,19.043,21.484,28.809,80.078,-5.371
1584546499.419,5.859,25.391,32.227,114.746,-15.137
1584546499.423,8.789,25.391,31.738,102.051,48.340
1584546499.427,22.461,21.973,29.297,83.496,99.609
1584546499.431,24.414,22.949,29.785,105.469,41.504
1584546499.435,13.672,23.926,27.832,139.648,-11.719
1584546499.438,11.230,25.879,26.855,133.301,47.852
1584546499.442,23.926,21.484,27.344,106.934,43.945
1584546499.446,28.809,20.996,28.320,115.723,-10.254
1584546499.450,14.648,24.902,26.855,147.461,-16.602
1584546499.454,6.348,21.973,25.391,150.391,1.953
1584546499.458,20.508,18.555,23.438,117.188,13.184
1584546499.462,28.809,21.973,22.949,114.258,23.438
1584546499.466,14.648,28.809,28.809,152.344,37.598
1584546499.470,3.418,28.320,26.855,166.016,35.645
1584546499.474,10.742,24.414,23.438,136.719,42.480
1584546499.478,23.926,23.926,26.367,120.605,-16.602
1584546499.481,18.066,24.902,26.855,148.438,-42.480
1584546499.485,1.465,24.902,24.414,169.434,45.410
1584546499.489,8.301,24.414,23.438,149.902,29.297
1584546499.493,27.344,25.391,23.926,124.512,-10.254
1584546499.497,29.785,28.809,26.367,145.996,37.598
1584546499.501,19.043,30.762,29.785,178.223,65.430
1584546499.505,12.695,28.320,28.320,159.668,71.289
1584546499.509,24.414,28.320,27.832,133.301,41.016
1584546499.513,33.203,26.367,28.320,144.531,23.438
1584546499.517,17.578,25.391,29.297,171.875,81.055
1584546499.520,7.812,29.785,31.738,177.246,109.375
1584546499.524,23.438,32.227,31.250,149.902,106.934
1584546499.528,35.645,31.250,29.785,139.648,82.031
1584546499.532,20.020,34.180,29.785,165.039,85.449
1584546499.536,6.836,35.645,30.762,178.223,87.402
1584546499.540,15.137,31.738,30.273,151.367,42.480
1584546499.544,31.738,28.809,27.832,131.348,79.590
1584546499.548,29.785,27.832,27.832,147.461,14.648
1584546499.552,15.625,32.227,31.738,170.898,3.418
1584546499.556,20.020,34.180,27.832,161.621,36.621
1584546499.560,35.156,30.273,26.367,139.160,5.859
1584546499.563,26.367,26.855,29.297,144.531,7.812
1584546499.567,7.812,26.367,31.250,171.387,47.852
1584546499.571,6.348,26.367,33.203,168.457,52.246
1584546499.575,18.066,26.367,30.762,131.836,24.902
1584546499.579,28.809,27.832,32.715,131.348,36.621
1584546499.583,20.020,31.738,35.645,160.645,48.340
1584546499.587,12.695,28.320,33.203,165.039,-18.555
1584546499.591,22.461,23.926,31.738,134.277,-35.645
1584546499.595,30.762,27.344,30.273,119.629,34.180
1584546499.599,22.949,31.250,31.738,147.461,7.324
1584546499.603,10.742,31.250,34.668,165.039,23.926
1584546499.606,16.602,29.785,34.180,142.578,63.477
1584546499.610,31.738,28.320,32.227,118.652,56.152
1584546499.614,30.762,25.879,33.691,139.160,56.641
1584546499.618,13.184,27.832,38.086,165.039,65.918
1584546499.622,9.277,27.832,36.621,144.531,57.617
1584546499.626,23.438,24.414,31.738,113.770,25.391
1584546499.630,29.297,25.391,32.715,123.535,9.277
1584546499.634,12.695,27.832,31.738,150.879,-2.930
1584546499.638,3.906,25.879,28.320,146.973,-10.254
1584546499.642,22.461,24.414,30.273,113.770,21.973
1584546499.645,28.809,20.020,31.250,112.305,-2.441
1584546499.649,15.625,20.020,32.715,145.020,-13.672
1584546499.653,5.371,22.949,32.227,145.508,15.625
1584546499.657,12.695,23.926,29.297,114.258,6.836
1584546499.661,23.438,23.926,27.344,99.121,27.832
1584546499.665,13.672,22.949,27.832,122.070,-5.371
1584546499.669,0.000,25.391,28.320,144.531,5.371
1584546499.673,1.953,27.832,24.902,121.094,42.969
1584546499.677,18.066,28.320,24.902,99.121,33.203
1584546499.681,18.555,29.785,27.832,114.258,33.691
1584546499.685,4.395,29.297,29.297,139.160,14.160
1584546499.688,2.441,27.344,30.762,127.930,3.418
1584546499.692,14.648,26.855,31.738,97.168,18.066
1584546499.696,20.020,25.391,31.738,100.586,56.152
1584546499.700,8.301,25.391,30.762,126.953,20.996
1584546499.704,3.418,30.273,30.273,129.883,0.000
1584546499.708,16.113,30.762,28.809,100.586,16.602
1584546499.712,23.926,29.297,28.320,95.703,14.160
1584546499.716,16.113,30.273,30.762,124.023,-15.625
1584546499.720,6.348,31.738,32.715,132.812,-7.324
1584546499.724,12.695,29.297,28.809,101.074,18.555
1584546499.728,24.902,27.344,26.855,80.078,48.828
1584546499.731,17.090,28.809,26.855,104.492,39.551
1584546499.735,2.441,29.785,25.879,127.930,24.902
1584546499.739,3.906,26.855,28.320,103.516,41.016
1584546499.743,20.508,26.855,28.809,68.848,48.340
1584546499.747,24.902,28.809,29.785,84.473,59.082
1584546499.751,10.742,30.762,30.762,118.652,31.738
1584546499.755,6.348,28.320,29.297,109.375,45.410
1584546499.759,23.438,25.391,25.879,78.125,37.109
1584546499.763,32.715,27.344,24.414,81.055,17.090
1584546499.767,20.508,30.273,27.832,113.281,37.598
1584546499.770,13.672,30.762,31.250,114.746,31.250
1584546499.774,26.367,28.809,28.809,80.566,3.906
1584546499.778,36.621,27.832,27.344,70.312,-4.395
1584546499.782,28.320,28.809,31.738,98.145,-7.812
1584546499.786,20.996,28.809,30.273,110.840,18.555
1584546499.790,24.414,28.320,24.414,77.637,9.766
1584546499.794,32.715,25.391,29.297,63.477,35.156
1584546499.798,32.227,20.996,31.250,98.633,-5.371
1584546499.802,18.555,21.484,30.273,124.512,11.719
1584546499.806,5.371,23.926,30.762,88.867,43.945
1584546499.810,7.812,22.949,26.367,45.410,-39.062
1584546499.813,13.672,22.949,25.879,60.059,-2.441
1584546499.817,6.836,26.367,27.344,96.680,15.625
1584546499.821,6.348,26.855,28.320,94.238,6.348
1584546499.825,20.508,23.438,25.879,63.477,25.391
1584546499.829,32.227,27.344,24.902,66.406,46.387
1584546499.833,23.438,30.762,27.832,98.145,63.965
1584546499.837,13.672,31.738,28.809,101.562,93.262
1584546499.841,21.973,30.273,27.344,70.312,96.680
1584546499.845,29.785,26.855,28.320,62.500,50.781
1584546499.849,15.625,26.367,30.273,88.379,20.508
1584546499.853,1.465,26.367,28.320,100.098,59.082
1584546499.856,11.719,29.785,26.367,75.684,91.309
1584546499.860,27.344,26.367,25.391,53.223,28.809
1584546499.864,24.902,23.926,27.832,72.754,-29.297
1584546499.868,10.254,26.367,28.320,97.656,-29.785
1584546499.872,13.672,25.879,28.809,84.961,29.785
1584546499.876,31.250,23.926,29.785,57.129,69.336
1584546499.880,33.203,24.414,27.832,62.012,40.527
1584546499.884,20.996,29.785,29.785,98.633,28.320
1584546499.888,19.043,32.227,31.250,102.051,5.859
1584546499.892,31.250,30.273,25.879,68.848,-45.410
1584546499.895,41.016,30.273,24.902,68.359,19.043
1584546499.899,30.762,30.273,29.297,100.098,65.430
1584546499.903,17.578,27.832,31.738,105.957,43.945
1584546499.907,27.344,26.367,32.227,73.730,43.457
1584546499.911,41.504,25.879,26.367,56.152,-20.508
1584546499.915,32.227,27.832,23.438,82.520,0.000
1584546499.919,17.090,31.250,24.902,104.004,42.480
1584546499.923,16.602,30.273,21.973,74.219,14.160
1584546499.927,28.809,27.344,24.414,46.875,27.344
1584546499.931,27.832,28.320,28.809,71.289,79.102
1584546499.935,7.324,27.832,27.832,97.168,59.570
1584546499.938,2.930,26.855,29.785,83.496,3.418
1584546499.942,17.578,27.344,28.809,55.176,49.316
1584546499.946,21.484,27.344,24.414,60.059,42.969
1584546499.950,6.348,26.855,25.391,91.797,-38.574
1584546499.954,-0.488,28.809,27.344,91.797,-8.789
1584546499.958,9.766,26.855,25.879,58.105,54.688
1584546499.962,15.625,25.391,27.344,55.176,83.008
1584546499.966,6.348,26.367,29.297,78.613,22.949
1584546499.970,-6.348,26.367,28.320,74.707,16.602
1584546499.974,1.953,29.297,26.855,49.805,62.500
1584546499.978,15.137,27.832,26.367,38.574,60.059
1584546499.981,8.789,23.438,25.879,62.500,48.828
1584546499.985,-6.348,25.391,27.344,86.426,51.758
1584546499.989,0.977,26.855,27.832,67.871,21.973
1584546499.993,27.344,26.367,25.879,53.223,42.480
1584546499.997,19.043,26.367,29.785,65.918,78.613
1584546500.001,-17.578,23.926,32.227,78.125,7.812
1584546500.005,-21.973,20.996,33.203,69.824,-4.395
1584546500.009,-0.488,20.020,34.180,42.480,4.395
1584546500.013,3.906,17.578,32.715,46.387,-1.465
1584546500.017,-10.742,18.555,34.180,77.148,15.137
1584546500.020,-17.090,22.461,34.180,78.613,-5.371
1584546500.024,-3.906,21.973,28.320,47.363,-31.738
1584546500.028,9.277,20.020,27.344,39.062,20.508
1584546500.032,1.465,23.926,30.762,65.918,85.938
1584546500.036,-12.695,27.344,27.344,78.613,36.133
1584546500.040,-4.395,24.414,24.414,52.734,7.812
1584546500.044,11.719,25.879,25.391,32.715,20.508
1584546500.048,1.953,28.809,27.344,52.734,27.832
1584546500.052,-14.648,27.832,29.785,78.613,24.902
1584546500.056,-9.766,25.879,30.273,61.035,-0.977
1584546500.060,4.883,22.461,29.785,35.156,36.133
1584546500.063,4.883,21.484,31.250,55.664,67.383
1584546500.067,-11.719,25.391,31.738,81.543,27.344
1584546500.071,-12.207,26.367,30.273,66.895,16.113
1584546500.075,5.371,25.391,28.809,37.109,6.348
1584546500.079,10.742,28.320,28.809,44.434,4.883
1584546500.083,-0.977,29.785,31.250,82.031,30.273
1584546500.087,-9.766,28.809,32.715,84.473,33.691
1584546500.091,0.000,28.320,30.762,51.758,33.203
1584546500.095,9.766,27.344,29.785,41.504,48.340
1584546500.099,-0.488,27.832,30.762,64.941,16.113
1584546500.103,-9.766,26.855,33.203,78.125,-28.809
1584546500.106,-3.418,23.926,31.738,53.711,-32.715
1584546500.110,12.207,23.926,27.832,32.227,-3.418
1584546500.114,11.230,26.367,25.879,52.734,-16.113
1584546500.118,-3.418,25.391,23.926,73.730,15.137
1584546500.122,-1.465,26.367,25.391,57.129,92.773
1584546500.126,12.207,25.391,27.832,35.156,59.570
1584546500.130,9.766,23.438,26.367,44.922,-7.812
1584546500.134,-10.254,26.855,27.344,70.312,23.926
1584546500.138,-15.137,26.855,29.297,67.383,20.508
1584546500.142,4.883,26.855,28.809,41.504,12.207
1584546500.145,14.648,26.367,30.273,40.039,46.875
1584546500.149,-0.488,29.785,30.273,65.918,48.340
1584546500.153,-9.277,31.738,29.785,70.312,-1.953
1584546500.157,5.859,28.320,30.762,44.434,-33.203
1584546500.161,20.020,30.762,28.320,31.250,24.902
1584546500.165,10.254,37.109,28.809,50.293,65.430
1584546500.169,-3.418,39.551,32.715,70.801,46.387
1584546500.173,3.418,38.086,33.203,53.711,56.641
1584546500.177,15.625,34.668,30.762,28.809,28.320
1584546500.181,11.230,32.715,29.297,45.898,2.930
1584546500.185,-1.465,33.691,30.762,73.242,-0.977
1584546500.188,-3.418,31.738,29.785,58.594,-5.859
1584546500.192,10.742,29.785,28.809,28.809,53.711
1584546500.196,16.602,28.809,28.320,36.133,59.570
1584546500.200,3.418,26.367,30.273,66.406,22.949
1584546500.204,-4.883,27.344,29.785,65.918,47.852
1584546500.208,6.836,27.832,26.855,28.320,28.320
1584546500.212,14.160,27.344,29.297,19.531,35.156
1584546500.216,3.906,29.785,32.715,55.176,43.945
1584546500.220,-4.395,28.320,32.227,67.383,49.805
1584546500.224,7.812,25.879,30.273,41.992,57.129
1584546500.228,21.973,25.879,31.250,32.715,27.832
1584546500.231,14.648,29.297,33.203,58.594,77.148
1584546500.235,2.930,29.297,33.203,79.102,64.453
1584546500.239,6.836,26.367,32.227,58.105,11.230
1584546500.243,19.043,27.344,30.273,29.785,29.785
1584546500.247,18.555,28.809,29.785,48.340,-19.531
1584546500.251,8.301,28.320,32.227,81.543,-10.742
1584546500.255,5.859,25.879,32.715,65.918,47.852
1584546500.259,15.625,26.367,32.715,35.156,18.066
1584546500.263,22.949,28.320,33.691,45.410,21.973
1584546500.267,10.254,26.855,30.762,72.754,29.297
1584546500.270,0.977,29.297,31.250,68.848,20.508
1584546500.274,14.648,29.785,33.691,42.969,20.020
1584546500.278,22.949,24.414,31.738,35.645,-23.438
1584546500.282,10.254,23.438,32.715,62.500,-12.695
1584546500.286,-2.441,24.414,35.645,76.172,-19.531
1584546500.290,3.418,24.414,33.203,44.434,2.930
1584546500.294,16.602,23.438,29.785,26.855,57.129
1584546500.298,13.672,28.320,29.785,44.922,21.484
1584546500.302,0.977,32.227,36.621,63.965,-3.906
1584546500.306,2.441,29.785,36.621,53.711,39.062
1584546500.310,16.602,26.367,32.227,29.297,53.223
1584546500.313,23.438,24.414,35.645,51.758,54.199
1584546500.317,15.137,27.344,37.598,86.914,9.766
1584546500.321,-1.465,30.762,33.203,58.594,-31.250
1584546500.325,2.441,28.809,28.809,17.090,17.578
1584546500.329,19.531,30.762,28.320,27.832,30.273
1584546500.333,10.742,37.109,31.250,59.570,57.617
1584546500.337,3.906,35.156,33.203,65.918,94.727
1584546500.341,17.090,28.809,30.762,35.645,22.949
1584546500.345,24.414,29.297,29.297,17.090,36.621
1584546500.349,15.625,32.227,30.762,47.363,56.641
1584546500.353,6.348,33.691,31.250,72.266,10.742
1584546500.356,10.254,33.203,31.738,46.875,-0.488
1584546500.360,22.949,28.809,32.715,27.344,8.301
1584546500.364,19.531,30.273,31.738,50.781,12.695
1584546500.368,4.883,33.691,33.691,76.660,34.180
1584546500.372,5.371,29.297,32.715,55.176,20.020
1584546500.376,19.043,26.367,27.832,23.438,3.418
1584546500.380,20.996,27.344,25.879,36.133,39.551
1584546500.384,2.930,28.320,28.809,64.941,-5.859
1584546500.388,-3.906,27.344,30.273,60.059,20.508
1584546500.392,6.836,23.438,29.785,27.344,15.137
1584546500.395,14.160,22.461,27.832,25.391,-45.898
1584546500.399,2.441,22.461,27.832,58.105,-14.160
1584546500.403,-1.953,23.926,32.715,62.988,36.621
1584546500.407,7.812,23.926,33.203,32.715,63.965
1584546500.411,17.578,20.020,33.691,24.414,39.551
1584546500.415,10.742,21.973,33.691,47.852,27.344
1584546500.419,-0.488,24.902,35.156,63.965,48.828
1584546500.423,9.277,25.879,36.133,43.945,16.113
1584546500.427,24.902,27.344,35.645,19.531,36.621
1584546500.431,20.508,28.320,34.668,41.016,57.129
1584546500.435,7.812,29.785,36.621,72.754,9.277
1584546500.438,10.742,27.832,38.086,60.547,37.109
1584546500.442,23.438,25.879,35.156,30.273,22.949
1584546500.446,22.461,24.414,34.180,35.645,27.344
1584546500.450,5.859,24.414,32.227,61.523,56.152
1584546500.454,-0.488,28.320,34.180,63.965,52.734
1584546500.458,13.672,27.344,33.691,32.715,54.199
1584546500.462,23.926,26.367,29.297,26.855,-2.441
1584546500.466,13.672,28.320,30.273,59.082,-19.531
1584546500.470,5.371,28.320,30.273,66.406,-44.434
1584546500.474,20.996,27.832,28.809,41.016,8.789
1584546500.478,34.668,29.297,30.273,28.320,94.238
1584546500.481,21.484,26.855,29.297,49.805,35.645
1584546500.485,6.836,27.344,30.273,74.219,9.277
1584546500.489,11.719,30.762,32.715,54.688,31.738
1584546500.493,26.855,30.762,31.250,27.344,26.367
1584546500.497,24.902,34.180,32.227,45.410,20.020
1584546500.501,8.301,36.133,35.645,77.148,32.227
1584546500.505,5.371,31.738,34.180,64.941,33.203
1584546500.509,24.902,29.297,32.715,39.551,11.230
1584546500.513,31.738,32.227,33.691,45.898,25.879
1584546500.517,10.742,32.715,30.273,62.012,44.434
1584546500.520,5.859,31.738,27.344,59.570,24.414
1584546500.524,18.555,32.227,28.320,29.785,52.734
1584546500.528,25.391,29.785,28.320,24.414,43.945
1584546500.532,17.090,28.809,29.297,60.059,-5.859
1584546500.536,5.859,29.785,29.297,68.848,-10.742
1584546500.540,9.766,29.297,29.297,33.691,38.574
1584546500.544,23.438,30.273,26.855,19.531,-20.996
1584546500.548,22.461,32.715,26.367,46.875,-30.273
1584546500.552,8.301,34.180,30.762,65.918,26.855
1584546500.556,11.719,30.762,31.250,48.340,44.434
1584546500.560,29.785,29.297,31.738,29.297,102.051
1584546500.563,31.250,31.738,35.645,45.410,124.023
1584546500.567,10.742,32.715,36.133,72.266,99.609
1584546500.571,6.348,32.227,33.691,59.570,8.301
1584546500.575,23.438,31.250,33.203,29.785,-35.645
1584546500.579,26.855,32.715,31.738,30.762,0.488
1584546500.583,13.672,32.227,29.297,54.199,-0.488
1584546500.587,2.441,31.738,29.785,54.688,10.742
1584546500.591,10.742,32.715,29.297,30.273,35.645
1584546500.595,26.367,29.785,26.855,23.926,-21.973
1584546500.599,19.531,27.832,29.297,50.781,-44.434
1584546500.603,8.301,30.762,31.738,67.871,5.371
1584546500.606,20.020,32.715,28.320,43.945,44.434
1584546500.610,35.645,29.785,26.855,20.508,27.832
1584546500.614,29.785,30.273,31.738,39.551,-24.414
1584546500.618,14.160,34.180,31.250,66.406,27.344
1584546500.622,10.742,31.738,28.320,50.293,30.273
1584546500.626,25.879,29.785,27.832,13.672,23.926
1584546500.630,28.809,28.809,28.809,19.043,31.738
1584546500.634,10.742,32.227,30.762,55.664,41.504
1584546500.638,7.812,34.668,31.250,53.711,48.828
1584546500.642,22.461,31.250,28.320,19.043,33.691
1584546500.645,33.691,31.738,28.320,23.926,52.246
1584546500.649,24.902,35.156,32.227,57.617,17.090
1584546500.653,14.648,34.180,32.715,62.500,12.207
1584546500.657,29.297,31.250,30.273,35.156,12.695
1584546500.661,42.480,29.297,29.297,25.391,-15.625
1584546500.665,29.297,27.832,31.738,50.293,-31.738
1584546500.669,15.625,27.832,31.250,67.383,-9.277
1584546500.673,25.391,28.320,27.832,33.691,41.504
1584546500.677,35.156,27.832,26.855,9.766,40.039
1584546500.681,19.531,27.832,28.320,35.156,31.738
1584546500.685,1.465,26.367,28.809,59.082,83.984
1584546500.688,6.348,27.832,28.320,46.875,81.055
1584546500.692,23.438,27.832,25.391,14.648,-2.441
1584546500.696,28.809,28.809,25.391,23.438,19.043
1584546500.700,15.625,31.250,31.250,56.152,27.832
1584546500.704,8.301,30.273,29.297,47.852,22.461
1584546500.708,15.137,28.809,24.902,13.672,51.270
1584546500.712,23.926,27.344,26.855,9.277,28.809
1584546500.716,16.113,25.879,29.297,43.457,32.227
1584546500.720,3.418,23.926,30.273,51.758,60.059
1584546500.724,14.648,22.949,27.344,23.926,54.688
1584546500.728,28.809,23.438,23.926,12.695,23.926
1584546500.731,21.484,22.461,28.320,40.039,30.273
1584546500.735,8.789,22.949,31.738,58.105,2.930
1584546500.739,14.648,21.973,30.762,36.133,-46.387
1584546500.743,30.273,20.508,30.762,17.578,39.062
1584546500.747,31.738,22.949,30.762,38.086,57.617
1584546500.751,16.602,26.367,32.715,65.430,-12.695
1584546500.755,15.625,26.367,30.762,49.316,-27.344
1584546500.759,35.156,24.902,27.832,23.438,-20.996
1584546500.763,39.062,26.367,27.832,32.715,10.742
1584546500.767,25.879,29.297,29.297,61.523,36.133
1584546500.770,21.484,31.738,32.227,58.594,41.504
1584546500.774,38.574,32.715,29.785,27.344,62.988
1584546500.778,49.805,25.879,28.320,20.996,50.293
1584546500.782,36.621,26.367,30.273,52.734,24.414
1584546500.786,28.320,31.738,28.320,66.895,17.578
1584546500.790,39.551,27.832,26.367,39.551,-9.277
1584546500.794,54.688,26.855,28.320,26.367,45.410
1584546500.798,46.875,30.273,29.785,49.316,53.711
1584546500.802,32.715,31.738,29.785,70.312,-0.488
1584546500.806,37.598,32.715,31.250,47.852,18.066
1584546500.810,50.293,31.250,30.762,22.461,45.898
1584546500.813,45.898,31.738,30.273,38.574,63.965
1584546500.817,30.273,35.645,32.715,66.406,100.098
1584546500.821,28.320,34.180,33.203,55.664,24.902
1584546500.825,40.527,30.762,31.738,20.996,16.113
1584546500.829,41.992,31.250,31.738,28.320,54.688
1584546500.833,38.574,34.668,31.250,63.477,7.324
1584546500.837,31.738,34.668,27.344,62.988,-15.137
1584546500.841,30.762,31.738,24.414,27.832,5.371
1584546500.845,42.969,30.273,28.320,20.508,2.930
1584546500.849,33.203,28.809,33.691,50.781,-24.902
1584546500.853,18.555,29.785,30.762,65.430,10.254
1584546500.856,25.391,27.344,26.367,40.039,67.383
1584546500.860,36.133,24.414,26.855,16.602,38.086
1584546500.864,33.203,25.391,28.320,41.504,0.000
1584546500.868,17.090,24.902,27.344,63.477,12.207
1584546500.872,14.160,24.414,28.320,33.203,-15.137
1584546500.876,30.273,25.879,27.832,8.789,15.137
1584546500.880,33.691,27.344,26.855,28.809,30.762
1584546500.884,18.555,28.809,28.809,55.176,-0.488
1584546500.888,13.672,29.297,30.762,42.969,11.230
1584546500.892,28.320,29.297,28.809,15.137,36.133
1584546500.895,37.598,27.832,26.367,18.555,62.500
1584546500.899,28.809,28.320,27.344,43.945,25.879
1584546500.903,19.043,29.785,28.809,51.270,10.254
1584546500.907,35.645,31.250,29.297,24.414,41.992
1584546500.911,44.922,30.762,27.832,12.207,94.727
1584546500.915,24.414,28.320,27.344,34.180,37.109
1584546500.919,15.137,29.785,29.297,52.246,-10.742
1584546500.923,22.461,27.832,30.273,32.715,58.105
1584546500.927,36.133,26.855,26.367,7.812,42.480
1584546500.931,35.156,26.855,24.902,32.715,23.926
1584546500.935,20.508,24.414,30.273,61.523,-16.113
1584546500.938,20.508,23.926,29.297,39.551,-39.551
1584546500.942,37.109,25.879,23.926,13.672,34.668
1584546500.946,41.992,26.855,26.367,22.949,21.973
1584546500.950,25.879,27.344,31.250,51.758,11.719
1584546500.954,18.066,29.785,33.203,53.223,58.105
1584546500.958,32.227,29.785,30.273,15.625,-11.230
1584546500.962,36.621,25.879,29.297,6.836,-47.363
1584546500.966,26.367,24.414,32.715,47.363,16.602
1584546500.970,21.484,24.902,36.133,58.594,26.855
1584546500.974,38.574,28.320,35.645,30.273,53.223
1584546500.978,56.152,28.809,32.715,20.996,76.660
1584546500.981,40.527,25.391,35.645,45.410,62.988
1584546500.985,26.855,26.367,37.598,64.453,32.715
1584546500.989,32.715,26.855,33.691,40.039,33.203
1584546500.993,49.805,28.320,28.809,10.742,33.203
1584546500.997,46.875,28.809,28.320,23.926,15.625
1584546501.001,30.273,26.367,32.715,52.246,26.367
1584546501.005,28.809,26.855,31.250,34.180,0.000
1584546501.009,47.852,27.344,30.273,4.395,-14.648
1584546501.013,57.617,24.902,32.715,24.902,-18.555
1584546501.017,42.969,24.414,29.297,58.594,31.250
1584546501.020,39.062,23.438,27.832,54.199,-7.324
1584546501.024,49.805,22.949,29.297,21.973,-52.246
1584546501.028,58.105,22.949,25.879,20.996,25.879
1584546501.032,48.340,23.438,25.391,50.781,74.219
1584546501.036,34.668,26.855,30.273,56.152,24.414
1584546501.040,42.969,26.855,32.715,29.785,42.480
1584546501.044,55.664,24.902,29.785,13.672,36.621
1584546501.048,52.246,24.902,25.391,37.109,12.207
1584546501.052,41.504,25.391,28.809,65.918,24.414
1584546501.056,39.551,26.367,30.762,41.504,43.945
1584546501.060,49.316,23.438,29.785,12.695,63.477
1584546501.063,50.781,22.461,32.227,33.203,71.289
1584546501.067,43.457,30.273,35.156,59.570,39.551
1584546501.071,36.133,32.715,31.250,45.898,6.836
1584546501.075,45.898,26.855,27.832,15.625,47.852
1584546501.079,58.594,25.879,29.297,21.973,94.727
1584546501.083,47.363,28.320,29.297,51.758,64.453
1584546501.087,38.086,30.273,29.297,55.664,31.738
1584546501.091,47.363,27.832,25.879,23.438,4.395
1584546501.095,57.617,25.391,25.879,6.348,-2.930
1584546501.099,48.828,29.785,30.762,36.133,47.852
1584546501.103,38.086,32.227,31.738,62.500,34.180
1584546501.106,47.363,33.691,31.250,36.133,40.039
1584546501.110,61.523,30.762,32.227,12.207,74.219
1584546501.114,61.035,28.809,33.691,36.621,4.395
1584546501.118,44.434,30.762,32.715,56.641,-6.348
1584546501.122,41.016,30.273,29.785,35.156,26.367
1584546501.126,55.176,30.273,28.320,8.301,-0.488
1584546501.130,54.199,30.273,28.809,20.020,1.953
1584546501.134,37.598,27.344,26.367,48.340,7.812
1584546501.138,33.691,24.414,26.855,41.992,17.090
1584546501.142,46.387,24.414,26.367,11.719,46.387
1584546501.145,53.711,26.855,23.438,16.602,34.180
1584546501.149,37.598,28.809,24.902,49.805,12.207
1584546501.153,32.715,28.320,25.391,50.293,31.250
1584546501.157,46.875,28.809,27.832,17.578,25.879
1584546501.161,52.246,26.855,26.367,6.836,11.719
1584546501.165,42.480,25.879,27.832,34.180,-1.465
1584546501.169,32.227,28.809,34.180,51.270,-3.418
1584546501.173,38.086,28.320,34.180,22.949,11.719
1584546501.177,51.270,28.320,28.809,3.418,8.301
1584546501.181,49.805,27.832,27.344,29.297,11.719
1584546501.185,32.227,27.344,31.738,54.688,50.293
1584546501.188,21.973,28.809,28.809,33.691,47.852
1584546501.192,31.738,26.367,21.973,7.812,17.090
1584546501.196,34.668,24.902,21.973,23.926,1.953
1584546501.200,12.207,27.344,23.926,46.387,59.570
1584546501.204,0.000,29.785,26.367,40.527,56.152
1584546501.208,12.695,29.785,29.297,20.996,24.902
1584546501.212,17.578,29.785,30.273,18.555,70.312
1584546501.216,5.371,27.344,30.273,42.969,-38.086
1584546501.220,12.207,25.391,31.250,70.801,-76.172
1584546501.224,20.508,22.949,34.668,44.434,-7.324
1584546501.228,2.930,14.160,32.227,-4.395,-3.906
1584546501.231,-20.020,14.648,27.832,14.160,27.344
1584546501.235,-35.645,21.973,17.578,36.133,-20.508
1584546501.239,-30.762,17.090,10.254,10.254,-24.414
1584546501.243,-29.297,9.277,24.902,-25.391,6.836
1584546501.247,-40.039,-0.977,28.320,-10.742,-32.715
1584546501.251,-41.016,-1.953,24.414,37.109,-27.832
1584546501.255,-63.477,0.488,42.969,2.441,4.883
1584546501.259,-82.031,0.488,53.223,-56.152,-15.625
1584546501.263,-84.961,-0.488,56.641,-57.129,-19.531
1584546501.267,-96.680,-8.789,53.711,-23.438,29.785
1584546501.270,-99.121,-16.113,56.152,-28.320,39.551
1584546501.274,-82.520,-22.461,69.824,-64.941,16.602
1584546501.278,-84.473,-23.926,70.312,-64.453,42.480
1584546501.282,-109.375,-21.484,63.477,-45.410,47.363
1584546501.286,-107.422,-14.160,53.223,-33.691,55.176
1584546501.290,-80.566,-4.395,48.340,-45.410,75.684
1584546501.294,-62.500,-6.348,56.152,-50.293,62.012
1584546501.298,-64.941,-5.371,58.594,-17.578,59.570
1584546501.302,-65.430,0.977,50.781,13.672,36.133
1584546501.306,-56.641,3.906,46.875,-0.977,5.371
1584546501.310,-38.574,2.441,49.316,-21.484,-32.227
1584546501.313,-29.785,2.930,50.293,-0.977,-7.812
1584546501.317,-39.062,13.672,59.082,31.738,40.527
1584546501.321,-38.574,14.160,59.082,20.996,11.230
1584546501.325,-18.066,13.184,51.270,-3.906,2.930
1584546501.329,-2.930,9.766,50.293,6.836,6.836
1584546501.333,-11.719,7.812,46.875,36.133,-27.832
1584546501.337,-20.996,16.602,44.434,42.969,18.555
1584546501.341,-6.348,20.996,43.945,20.508,14.160
1584546501.345,12.695,23.926,45.898,18.066,7.812
1584546501.349,2.441,23.438,43.945,43.457,66.895
1584546501.353,-12.207,20.996,39.062,53.711,66.895
1584546501.356,3.906,22.949,44.922,32.227,51.270
1584546501.360,19.531,22.949,45.898,16.113,1.953
1584546501.364,9.277,20.508,40.527,40.039,-18.066
1584546501.368,-4.395,21.484,41.016,62.012,-17.090
1584546501.372,0.488,22.461,39.551,43.945,-15.625
1584546501.376,20.020,21.973,37.109,20.020,-11.719
1584546501.380,23.438,23.926,37.598,30.273,41.992
1584546501.384,10.254,23.926,40.039,57.129,80.566
1584546501.388,12.695,26.367,39.551,52.246,87.402
1584546501.392,25.879,27.832,37.109,23.438,61.523
1584546501.395,33.691,26.855,39.062,27.832,-19.531
1584546501.399,21.484,25.391,41.504,55.664,-24.414
1584546501.403,8.301,24.414,40.039,57.129,12.695
1584546501.407,17.090,22.461,37.109,24.902,49.316
1584546501.411,26.367,20.508,37.598,15.137,63.965
1584546501.415,20.020,23.438,39.551,42.969,19.043
1584546501.419,9.277,24.902,35.645,56.152,14.648
1584546501.423,13.672,20.996,32.227,25.391,17.578
1584546501.427,27.344,20.508,31.738,2.930,16.113
1584546501.431,24.902,24.414,32.227,29.785,68.848
1584546501.435,13.184,25.879,30.273,61.523,28.320
1584546501.438,15.137,25.879,29.297,42.480,-47.852
1584546501.442,33.203,26.855,28.809,11.230,-53.223
1584546501.446,37.598,26.855,28.809,22.949,2.441
1584546501.450,20.996,26.855,29.785,51.270,76.660
1584546501.454,16.113,24.414,28.809,46.387,87.402
1584546501.458,29.297,24.902,28.320,14.160,54.688
1584546501.462,41.504,26.855,31.738,30.273,64.941
1584546501.466,44.922,18.555,38.574,82.520,69.336
1584546501.470,60.547,20.020,39.062,100.586,-15.625
1584546501.474,70.801,38.574,28.809,56.152,-28.809
1584546501.478,56.152,43.945,20.020,9.766,16.113
1584546501.481,41.992,41.504,20.020,27.344,-8.301
1584546501.485,37.109,44.922,20.020,50.293,-0.488
1584546501.489,51.270,49.316,17.578,30.762,38.574
1584546501.493,72.266,52.246,14.160,15.625,39.551
1584546501.497,77.148,53.223,13.672,40.527,-17.578
1584546501.501,78.613,56.152,16.602,72.266,-2.930
1584546501.505,77.637,57.617,16.113,54.688,33.203
1584546501.509,84.473,57.617,10.742,23.438,-3.418
1584546501.513,98.145,57.617,9.277,41.016,22.461
1584546501.517,84.473,57.617,10.742,68.359,29.297
1584546501.520,81.543,59.570,11.230,77.148,8.789
1584546501.524,102.539,58.105,13.184,62.012,45.898
1584546501.528,109.375,53.711,14.648,50.781,57.617
1584546501.532,92.773,56.152,17.090,68.359,80.078
1584546501.536,78.613,56.641,18.066,81.055,78.613
1584546501.540,83.008,50.781,18.066,52.246,16.602
1584546501.544,89.355,49.805,16.113,30.762,-5.371
1584546501.548,78.613,51.758,13.184,53.711,14.160
1584546501.552,64.941,50.781,15.625,75.195,41.504
1584546501.556,67.383,46.875,16.113,52.246,51.758
1584546501.560,75.195,43.457,14.648,21.973,33.203
1584546501.563,67.383,42.480,17.578,42.480,25.879
1584546501.567,53.711,45.410,21.484,68.848,27.832
1584546501.571,52.246,44.922,25.391,53.223,40.527
1584546501.575,61.035,41.992,21.973,20.996,31.738
1584546501.579,66.406,41.992,19.531,28.809,14.160
1584546501.583,52.246,42.969,19.043,62.988,3.418
1584546501.587,42.969,44.434,19.531,60.059,25.391
1584546501.591,56.641,41.016,22.949,28.809,5.859
1584546501.595,64.453,39.062,21.973,22.949,-8.301
1584546501.599,48.828,41.992,20.996,45.898,5.859
1584546501.603,34.180,42.480,22.949,52.246,15.137
1584546501.606,43.457,41.016,23.438,31.738,8.789
1584546501.610,60.059,40.527,22.949,19.531,19.531
1584546501.614,55.176,41.992,21.973,40.039,52.734
1584546501.618,41.504,40.527,22.461,54.688,-3.418
1584546501.622,41.992,38.086,22.949,35.156,-35.645
1584546501.626,52.246,37.598,23.926,18.555,-14.160
1584546501.630,55.176,37.109,24.414,24.414,-62.988
1584546501.634,38.086,33.203,26.855,46.387,-37.109
1584546501.638,30.762,29.297,29.297,41.016,17.090
1584546501.642,48.340,29.785,27.344,15.625,55.664
1584546501.645,52.246,30.273,25.391,17.578,72.754
1584546501.649,38.574,31.250,27.832,47.363,5.859
1584546501.653,38.574,31.250,30.273,58.105,43.945
1584546501.657,50.293,29.297,29.297,23.438,33.691
1584546501.661,53.223,28.320,28.809,11.230,11.719
1584546501.665,47.852,28.320,26.367,38.574,83.008
1584546501.669,35.645,31.250,27.832,62.012,73.242
1584546501.673,42.480,30.762,24.902,38.574,33.691
1584546501.677,52.734,29.785,20.508,8.789,11.719
1584546501.681,43.945,27.832,24.902,29.785,16.113
1584546501.685,29.297,30.273,24.414,46.875,-3.418
1584546501.688,30.762,33.203,25.391,28.320,12.695
1584546501.692,50.293,34.180,26.855,4.883,10.742
1584546501.696,46.875,34.180,26.855,24.414,13.184
1584546501.700,31.250,32.227,30.762,57.617,16.113
1584546501.704,28.809,31.250,34.668,48.828,1.465
1584546501.708,41.016,29.297,33.203,15.137,44.434
1584546501.712,51.270,28.320,29.785,15.137,52.734
1584546501.716,38.574,29.785,26.855,42.969,29.785
1584546501.720,23.438,29.297,23.438,45.898,50.781
1584546501.724,33.691,28.320,25.391,15.137,38.086
1584546501.728,46.387,31.250,25.879,1.953,38.086
1584546501.731,34.180,31.250,23.438,26.367,57.617
1584546501.735,18.066,28.320,25.391,43.457,-5.371
1584546501.739,22.461,26.855,26.855,20.508,17.090
1584546501.743,38.574,27.344,24.414,-5.859,55.176
1584546501.747,35.645,28.809,24.902,15.625,-1.465
1584546501.751,21.973,29.785,29.297,42.969,21.484
1584546501.755,22.949,27.832,30.273,19.043,17.578
1584546501.759,27.832,27.344,28.320,-6.836,-1.465
1584546501.763,35.156,25.879,28.320,9.277,36.621
1584546501.767,21.973,20.996,28.809,37.598,32.715
1584546501.770,12.207,22.461,28.320,35.156,70.312
1584546501.774,31.250,26.855,27.832,14.160,50.293
1584546501.778,44.434,28.320,29.297,18.555,-3.418
1584546501.782,28.809,28.320,32.715,43.945,3.418
1584546501.786,18.555,25.879,36.133,59.082,-28.809
1584546501.790,43.457,21.973,36.133,60.059,20.020
1584546501.794,57.617,27.832,31.250,46.875,56.152
1584546501.798,34.180,35.645,26.855,29.297,51.758
1584546501.802,7.324,38.574,22.949,31.738,69.824
1584546501.806,16.113,40.527,20.996,22.949,48.828
1584546501.810,38.574,37.598,24.414,5.859,33.203
1584546501.813,41.504,35.156,26.367,26.855,40.527
1584546501.817,34.668,40.039,22.949,52.734,48.340
1584546501.821,28.320,40.527,20.508,35.645,23.438
1584546501.825,45.898,35.156,20.996,17.578,37.109
1584546501.829,54.688,32.715,20.508,26.367,60.547
1584546501.833,39.551,36.621,20.996,48.340,65.918
1584546501.837,27.832,40.039,22.949,47.852,60.059
1584546501.841,36.621,37.109,20.020,16.602,49.805
1584546501.845,50.293,32.715,14.648,7.812,13.672
1584546501.849,40.039,33.203,18.555,36.133,23.438
1584546501.853,23.438,34.668,25.879,49.805,51.270
1584546501.856,31.738,34.668,26.855,18.555,10.254
1584546501.860,48.828,34.668,26.855,3.418,-17.578
1584546501.864,46.875,36.133,25.391,30.273,-18.066
1584546501.868,34.668,37.598,25.879,58.594,46.387
1584546501.872,34.668,33.691,23.926,39.062,55.664
1584546501.876,46.387,32.227,21.973,9.766,-11.230
1584546501.880,49.805,33.691,25.879,26.367,-15.625
1584546501.884,33.691,30.762,31.738,51.270,44.922
1584546501.888,23.438,27.344,30.762,33.691,38.086
1584546501.892,40.527,26.855,24.902,7.812,34.668
1584546501.895,42.969,27.344,20.020,21.484,20.020
1584546501.899,34.668,29.297,22.461,49.316,25.391
1584546501.903,28.809,25.391,30.762,45.898,65.430
1584546501.907,39.062,25.879,30.762,19.531,26.367
1584546501.911,48.340,29.785,26.367,17.578,43.457
1584546501.915,36.621,28.809,24.902,40.039,57.129
1584546501.919,29.297,33.691,29.297,51.758,27.344
1584546501.923,38.086,34.180,31.738,36.133,28.320
1584546501.927,52.734,26.367,23.926,13.672,39.551
1584546501.931,40.527,27.832,24.414,27.832,13.672
1584546501.935,22.461,31.738,30.273,52.246,-13.184
1584546501.938,27.344,24.902,27.832,32.715,12.207
1584546501.942,40.527,24.414,25.879,6.836,25.879
1584546501.946,44.434,30.273,27.832,15.625,-3.418
1584546501.950,30.273,32.227,24.902,35.156,-22.461
1584546501.954,23.926,33.691,20.020,32.227,-4.883
1584546501.958,40.039,31.738,20.508,5.371,36.133
1584546501.962,40.039,27.344,24.414,0.488,44.922
1584546501.966,27.344,28.320,27.832,31.250,65.918
1584546501.970,24.902,29.297,30.762,47.363,20.508
1584546501.974,35.645,25.391,28.809,23.438,-10.254
1584546501.978,42.969,26.367,28.320,5.859,7.324
1584546501.981,39.551,31.738,33.203,33.691,-56.152
1584546501.985,26.367,32.227,34.180,48.828,-36.621
1584546501.989,21.484,28.809,31.250,24.902,41.992
1584546501.993,39.551,25.879,30.762,3.906,-43.945
1584546501.997,40.527,28.320,33.691,21.484,-50.293
1584546502.001,25.391,33.691,35.645,56.641,25.391
1584546502.005,29.785,35.645,32.227,40.527,9.766
1584546502.009,47.852,35.645,27.344,7.324,0.977
1584546502.013,50.293,34.180,25.879,20.020,-11.719
1584546502.017,36.133,36.621,29.297,45.898,31.250
1584546502.020,31.738,33.203,35.645,36.133,24.414
1584546502.024,42.480,23.926,33.691,11.719,-29.297
1584546502.028,46.875,21.973,26.855,11.719,-24.902
1584546502.032,35.645,26.367,30.273,37.109,-31.250
1584546502.036,35.156,37.109,36.133,50.781,-66.406
1584546502.040,40.039,38.086,40.527,24.414,-46.875
1584546502.044,41.992,30.762,37.109,3.906,-1.953
1584546502.048,37.109,34.668,31.738,33.203,9.277
1584546502.052,28.809,37.109,32.715,53.223,-17.578
1584546502.056,34.180,36.133,34.668,27.832,8.301
1584546502.060,42.969,30.762,34.180,7.324,38.086
1584546502.063,38.086,24.414,34.180,25.391,33.203
1584546502.067,20.020,29.297,37.109,56.152,40.527
1584546502.071,17.578,32.227,36.621,40.039,16.602
1584546502.075,33.691,29.297,34.180,5.859,-7.324
1584546502.079,41.504,31.250,36.133,17.090,10.254
1584546502.083,28.809,32.715,40.527,42.480,21.973
1584546502.087,21.484,35.156,42.480,44.922,58.594
1584546502.091,36.133,36.133,38.086,26.855,72.754
1584546502.095,45.410,32.227,32.715,22.949,49.805
1584546502.099,31.250,29.785,36.621,39.551,65.430
1584546502.103,15.625,29.785,42.480,47.363,77.148
1584546502.106,29.297,30.762,41.016,25.879,57.129
1584546502.110,43.457,29.785,37.109,8.301,26.855
1584546502.114,27.344,28.320,39.062,23.926,40.039
1584546502.118,14.648,31.738,41.016,36.621,66.895
1584546502.122,22.461,34.180,40.039,22.949,25.391
1584546502.126,34.668,31.250,41.016,5.371,-14.160
1584546502.130,32.715,27.832,41.504,13.672,2.441
1584546502.134,19.043,31.738,43.945,41.504,50.781
1584546502.138,16.113,30.762,43.945,34.668,15.625
1584546502.142,32.715,28.320,39.062,4.883,-11.230
1584546502.145,34.180,28.809,39.062,3.906,-7.324
1584546502.149,29.297,26.855,40.527,26.367,-23.438
1584546502.153,24.414,26.855,39.551,36.133,80.078
1584546502.157,21.484,25.391,34.180,6.836,84.961
1584546502.161,31.738,25.879,30.762,-2.441,4.395
1584546502.165,23.926,30.762,36.621,28.320,33.691
1584546502.169,12.207,26.367,41.992,42.969,24.414
1584546502.173,20.508,21.973,39.551,13.184,56.641
1584546502.177,32.715,26.367,31.738,-16.602,65.918
1584546502.181,28.809,28.320,31.250,7.324,3.906
1584546502.185,13.672,29.297,33.691,35.645,27.344
1584546502.188,14.648,31.250,33.203,20.020,62.500
1584546502.192,31.738,27.832,30.762,-4.883,24.414
1584546502.196,29.297,22.461,29.785,7.324,15.625
1584546502.200,22.461,22.461,34.180,36.621,44.434
1584546502.204,17.578,21.484,35.645,32.227,-30.273
1584546502.208,22.461,16.602,30.273,0.000,-37.109
1584546502.212,35.156,17.090,28.809,5.859,63.965
1584546502.216,19.531,19.531,26.855,34.668,61.035
1584546502.220,10.742,20.996,24.414,33.691,-14.648
1584546502.224,27.832,21.484,24.414,7.324,-20.508
1584546502.228,37.598,14.648,26.855,0.977,42.969
1584546502.231,24.902,16.113,27.344,23.926,38.574
1584546502.235,13.184,21.973,27.832,40.527,13.184
1584546502.239,18.066,21.484,26.855,21.484,11.719
1584546502.243,31.738,19.531,24.902,8.789,72.754
1584546502.247,29.785,18.555,24.902,33.203,68.848
1584546502.251,15.625,19.043,28.320,51.270,5.859
1584546502.255,23.926,19.043,27.344,35.645,28.809
1584546502.259,54.688,20.020,24.414,20.996,60.547
1584546502.263,38.574,17.578,26.367,18.066,44.434
1584546502.267,-4.883,11.719,27.344,12.695,55.176
1584546502.270,-14.648,9.766,25.879,4.395,81.543
1584546502.274,-3.418,7.812,23.438,-20.996,21.484
1584546502.278,0.977,5.859,17.578,-32.227,2.441
1584546502.282,-23.438,5.371,14.160,-25.391,19.043
1584546502.286,-33.691,5.859,12.207,-18.066,11.230
1584546502.290,-20.508,7.324,15.137,-37.109,2.441
1584546502.294,-17.578,6.836,17.578,-55.176,37.109
1584546502.298,-20.020,5.371,18.066,-27.832,28.320
1584546502.302,-20.020,4.395,17.578,-1.465,30.762
1584546502.306,-15.137,3.906,12.695,-26.855,61.035
1584546502.310,2.441,7.324,8.301,-41.016,46.387
1584546502.313,2.930,10.254,9.277,-19.043,58.105
1584546502.317,-11.230,7.324,14.648,3.418,46.387
1584546502.321,-4.883,2.441,16.602,0.488,4.395
1584546502.325,9.766,-0.488,19.043,-32.227,0.000
1584546502.329,14.160,0.977,16.113,-30.762,46.875
1584546502.333,1.953,5.859,14.648,3.418,35.645
1584546502.337,-4.883,8.301,17.578,4.883,6.836
1584546502.341,11.230,6.836,16.602,-17.090,19.043
1584546502.345,27.832,6.348,11.719,-16.602,22.461
1584546502.349,19.531,7.812,14.160,8.301,39.062
1584546502.353,3.906,10.254,17.090,14.160,17.090
1584546502.356,15.137,13.184,17.090,-7.324,-0.488
1584546502.360,33.203,12.207,14.648,-15.137,33.203
1584546502.364,24.902,12.695,15.137,3.906,49.805
1584546502.368,8.301,12.207,20.020,9.277,25.391
1584546502.372,13.184,8.301,22.461,-15.137,53.223
1584546502.376,25.879,7.812,20.996,-32.227,25.391
1584546502.380,24.414,10.254,20.020,-16.113,20.508
1584546502.384,9.766,11.719,20.020,13.672,57.617
1584546502.388,12.695,15.137,19.531,13.184,59.570
1584546502.392,24.902,16.113,18.555,-15.625,62.988
1584546502.395,25.879,13.184,14.160,-21.484,35.156
1584546502.399,14.648,17.090,16.113,7.812,-43.945
1584546502.403,6.348,16.602,20.508,12.207,-0.488
1584546502.407,18.555,12.695,23.438,-18.555,60.547
1584546502.411,32.227,12.207,24.902,-27.832,18.066
1584546502.415,16.113,10.742,20.508,-13.672,-32.715
1584546502.419,-1.465,12.695,16.602,1.953,-57.129
1584546502.423,10.254,13.184,17.090,-11.719,-20.508
1584546502.427,31.738,11.719,17.578,-25.879,-24.902
1584546502.431,22.461,17.090,19.043,-2.930,-16.602
1584546502.435,6.836,18.066,20.508,20.508,-9.277
1584546502.438,11.719,14.160,15.137,1.953,-11.230
1584546502.442,28.320,10.742,14.648,-20.508,11.719
1584546502.446,28.320,9.277,20.996,-2.930,43.945
1584546502.450,10.742,10.742,23.438,20.508,40.527
1584546502.454,5.371,11.230,24.414,13.184,25.391
1584546502.458,20.508,9.277,18.066,-13.184,44.434
1584546502.462,32.715,8.789,14.648,-10.254,57.129
1584546502.466,18.555,9.277,20.996,13.672,41.992
1584546502.470,11.719,11.719,22.461,18.066,30.762
1584546502.474,27.344,11.230,20.020,-2.930,36.621
1584546502.478,38.574,7.324,22.461,-10.254,32.227
1584546502.481,19.043,5.859,22.461,9.766,22.949
1584546502.485,4.395,6.836,21.484,25.391,56.152
1584546502.489,17.578,5.859,24.414,5.371,108.887
1584546502.493,35.156,8.301,24.414,-10.742,74.219
1584546502.497,32.715,11.719,22.949,8.789,73.730
1584546502.501,17.578,10.254,21.484,27.344,93.262
1584546502.505,15.137,6.836,18.555,12.207,44.922
1584546502.509,29.297,1.953,16.602,-12.695,3.418
1584546502.513,30.273,1.465,20.020,-1.465,32.715
1584546502.517,10.742,3.906,22.461,22.461,16.113
1584546502.520,4.883,6.836,23.438,16.602,14.648
1584546502.524,23.926,10.254,20.996,-7.324,62.012
1584546502.528,29.297,6.348,15.625,-8.301,37.598
1584546502.532,12.695,7.324,18.066,23.926,17.090
1584546502.536,5.859,10.254,17.090,27.344,1.465
1584546502.540,16.113,6.836,14.648,0.977,24.902
1584546502.544,28.320,2.930,18.066,0.977,63.965
1584546502.548,22.461,0.000,20.996,17.578,14.160
1584546502.552,7.324,1.953,18.555,22.461,-19.531
1584546502.556,11.230,5.371,19.043,7.812,-9.277
1584546502.560,27.832,5.371,23.926,-4.883,-28.320
1584546502.563,27.832,1.465,19.531,14.160,-31.738
1584546502.567,7.812,4.883,18.555,30.762,-6.348
1584546502.571,0.000,5.859,21.484,12.207,-48.828
1584546502.575,17.090,2.930,17.578,-6.348,-30.762
1584546502.579,22.461,2.441,16.602,5.859,23.926
1584546502.583,8.301,3.418,20.996,31.250,25.879
1584546502.587,2.441,4.883,19.531,22.461,40.527
1584546502.591,17.578,0.977,16.602,-6.348,36.133
1584546502.595,26.367,0.977,19.043,-6.348,36.133
1584546502.599,9.766,3.906,21.484,18.066,4.883
1584546502.603,-2.930,3.418,24.414,27.832,-27.832
1584546502.606,7.812,-3.418,24.902,-0.977,19.043
1584546502.610,18.555,-5.371,24.414,-16.602,47.852
1584546502.614,9.766,0.977,20.996,6.348,4.883
1584546502.618,-6.348,4.883,21.484,22.461,-5.859
1584546502.622,-7.324,1.953,20.996,5.371,61.523
1584546502.626,15.137,-0.977,17.090,-13.184,96.680
1584546502.630,22.461,0.488,18.555,-0.488,48.340
1584546502.634,0.000,0.000,19.043,21.973,27.344
1584546502.638,0.977,0.488,19.043,17.578,11.719
1584546502.642,20.508,1.465,23.926,-1.953,35.645
1584546502.645,24.414,-2.930,23.438,2.441,61.523
1584546502.649,8.789,-4.883,22.461,23.926,90.332
1584546502.653,0.488,-4.395,25.879,22.461,61.035
1584546502.657,11.719,-7.324,22.461,-0.977,1.953
1584546502.661,23.438,-7.324,18.555,-2.930,50.293
1584546502.665,15.137,-6.348,20.508,17.090,43.945
1584546502.669,2.441,-7.324,19.531,22.949,20.020
1584546502.673,7.812,-10.742,17.090,-1.953,47.852
1584546502.677,24.414,-11.719,17.090,-13.672,55.176
1584546502.681,18.066,-11.719,20.020,9.277,27.344
1584546502.685,4.395,-12.695,20.996,27.344,17.090
1584546502.688,18.555,-10.742,19.531,18.066,29.297
1584546502.692,24.902,-14.160,20.508,-5.371,-31.738
1584546502.696,1.953,-20.020,25.879,-2.441,-14.160
1584546502.700,-9.766,-15.625,26.367,18.555,20.508
1584546502.704,-5.371,-10.254,21.484,15.625,19.043
1584546502.708,7.812,-11.230,20.508,-3.906,25.391
1584546502.712,11.719,-14.648,21.484,2.930,27.344
1584546502.716,-1.953,-13.184,24.902,30.273,32.715
1584546502.720,-8.789,-13.672,20.508,35.645,20.020
1584546502.724,2.441,-19.043,15.625,21.973,46.875
1584546502.728,15.625,-17.578,20.508,14.160,20.508
1584546502.731,8.301,-14.160,20.020,31.738,5.371
1584546502.735,-4.883,-15.137,19.531,48.340,-14.648
1584546502.739,3.906,-14.648,20.996,24.902,-27.344
1584546502.743,17.090,-16.113,20.996,8.789,13.672
1584546502.747,8.301,-16.113,18.066,32.227,25.391
1584546502.751,0.488,-14.648,19.043,54.688,54.199
1584546502.755,-1.953,-15.625,21.973,36.621,-1.465
1584546502.759,7.812,-14.648,18.066,23.926,-40.039
1584546502.763,20.020,-10.742,21.484,46.387,36.133
1584546502.767,1.465,-9.277,21.973,67.871,71.777
1584546502.770,-6.348,-9.277,16.113,53.223,28.320
1584546502.774,7.812,-10.742,19.531,31.738,-26.367
1584546502.778,15.625,-10.254,23.438,42.480,-5.859
1584546502.782,0.977,-3.906,23.926,66.406,64.453
1584546502.786,-6.836,-2.930,22.949,70.312,51.270
1584546502.790,5.371,-6.836,20.996,41.992,-41.504
1584546502.794,19.043,-2.930,20.996,35.645,1.953
1584546502.798,15.137,1.465,23.926,66.895,80.566
1584546502.802,0.977,0.977,24.902,75.684,59.082
1584546502.806,5.859,0.977,23.926,48.828,46.387
1584546502.810,20.508,2.930,22.461,26.855,0.000
1584546502.813,20.020,1.953,21.484,41.992,-37.598
1584546502.817,6.836,1.953,20.996,60.059,21.484
1584546502.821,2.930,5.371,22.949,42.480,19.531
1584546502.825,20.508,0.977,20.996,13.672,32.227
1584546502.829,22.949,-0.488,21.973,27.344,64.453
1584546502.833,2.930,6.836,27.832,45.410,31.738
1584546502.837,1.465,6.836,26.367,31.738,-25.391
1584546502.841,16.602,6.836,24.414,13.184,-32.715
1584546502.845,24.902,6.348,24.414,15.625,9.277
1584546502.849,11.719,5.371,24.902,39.062,-2.930
1584546502.853,0.000,8.789,26.367,41.504,-11.719
1584546502.856,12.207,8.789,28.809,14.160,11.719
1584546502.860,26.855,5.859,29.785,4.395,48.340
1584546502.864,11.719,3.418,23.438,19.043,6.348
1584546502.868,-5.859,3.906,24.414,26.855,-11.719
1584546502.872,2.930,3.906,29.785,11.230,19.531
1584546502.876,18.555,4.395,29.297,-6.836,10.254
1584546502.880,17.090,6.836,30.273,1.953,47.852
1584546502.884,4.883,12.207,33.203,23.926,80.078
1584546502.888,-1.465,11.230,37.109,19.043,15.625
1584546502.892,1.953,7.324,37.109,-7.324,14.648
1584546502.895,11.230,10.742,34.668,-6.836,42.969
1584546502.899,2.441,10.742,36.133,16.113,40.527
1584546502.903,-4.883,8.789,35.156,15.137,32.715
1584546502.907,4.883,7.812,36.621,-10.254,15.137
1584546502.911,11.230,7.812,37.109,-13.672,9.766
1584546502.915,1.465,6.836,37.598,4.395,17.090
1584546502.919,-8.301,6.836,39.551,9.277,23.438
1584546502.923,1.465,8.301,34.668,-15.625,33.203
1584546502.927,18.555,8.789,33.203,-30.762,67.383
1584546502.931,8.301,8.301,40.039,0.977,73.242
1584546502.935,2.930,9.277,40.039,22.461,50.781
1584546502.938,3.906,6.836,39.062,1.953,62.988
1584546502.942,6.836,3.906,39.062,-16.602,40.527
1584546502.946,13.184,5.859,35.156,-5.371,30.762
1584546502.950,0.488,6.836,35.156,20.996,28.809
1584546502.954,-3.418,8.301,39.062,11.719,-19.043
1584546502.958,18.066,10.254,31.738,-6.836,2.930
1584546502.962,48.828,13.184,29.785,24.414,71.777
1584546502.966,29.297,9.766,41.016,49.316,-4.883
1584546502.970,-10.254,2.930,43.945,13.184,-56.152
1584546502.974,0.000,0.488,42.969,-16.602,11.230
1584546502.978,15.137,-2.441,43.457,-3.418,54.199
1584546502.981,0.977,-2.930,45.410,22.949,14.648
1584546502.985,-6.348,-0.488,46.387,33.691,40.039
1584546502.989,-1.465,-3.906,47.852,13.672,53.711
1584546502.993,13.184,-7.324,48.828,5.371,2.441
1584546502.997,12.207,-7.812,48.828,25.391,29.785
1584546503.001,-7.324,-7.324,53.223,41.016,1.465
1584546503.005,-8.789,-7.324,52.734,33.203,-19.043
1584546503.009,7.812,-7.324,49.805,15.137,18.066
1584546503.013,10.742,-7.812,53.711,26.855,15.625
1584546503.017,-10.254,-9.277,57.129,49.316,54.199
1584546503.020,-17.578,-7.812,58.594,39.062,87.402
1584546503.024,-1.465,-6.348,56.152,20.508,28.809
1584546503.028,8.301,-7.812,53.223,20.508,14.160
1584546503.032,-11.230,-8.789,55.664,35.156,35.645
1584546503.036,-26.367,-7.812,59.082,42.969,13.184
1584546503.040,-1.953,-6.348,64.941,32.715,33.691
1584546503.044,12.695,-3.906,61.523,18.555,-1.953
1584546503.048,3.906,0.488,60.547,25.879,-31.250
1584546503.052,-1.465,4.395,62.500,40.039,20.020
1584546503.056,2.930,0.977,55.176,25.391,17.578
1584546503.060,19.531,0.977,49.316,13.184,3.906
1584546503.063,19.043,3.418,48.340,27.832,8.301
1584546503.067,2.441,7.812,55.176,48.340,-6.348
1584546503.071,6.348,12.695,56.152,34.668,8.301
1584546503.075,20.508,13.672,47.852,8.789,32.715
1584546503.079,31.738,15.625,42.969,20.508,28.320
1584546503.083,18.555,17.090,46.387,47.363,0.488
1584546503.087,8.789,22.461,49.805,37.109,14.160
1584546503.091,25.391,22.949,48.340,15.137,39.551
1584546503.095,33.691,18.555,42.969,22.949,17.578
1584546503.099,20.996,18.555,41.016,37.109,30.762
1584546503.103,7.812,20.508,43.945,41.016,84.473
1584546503.106,25.879,21.973,42.480,29.785,55.664
1584546503.110,38.574,21.973,41.504,13.672,-0.488
1584546503.114,25.391,23.926,41.016,32.227,22.461
1584546503.118,18.066,24.902,36.621,48.340,48.340
