timestamps,TP9,AF7,AF8,TP10,Right AUX
1584600825.048,38.086,27.344,29.785,45.410,-5.371
1584600825.052,56.152,28.809,35.156,152.832,55.176
1584600825.056,23.926,25.879,29.785,36.621,40.039
1584600825.060,-10.254,23.438,22.461,-94.727,42.480
1584600825.063,15.625,29.785,23.926,-5.371,42.480
1584600825.067,45.410,33.691,26.367,126.465,10.742
1584600825.071,33.203,26.855,27.344,68.848,21.484
1584600825.075,4.395,21.484,27.344,-75.195,57.617
1584600825.079,13.184,21.973,28.320,-48.828,21.973
1584600825.083,42.969,25.391,32.715,99.609,39.062
1584600825.087,39.062,24.414,32.227,107.422,8.301
1584600825.091,8.301,18.555,26.367,-40.527,-13.184
1584600825.095,-2.930,19.531,28.320,-79.102,59.082
1584600825.099,26.367,28.809,31.738,72.266,93.262
1584600825.102,41.504,30.273,31.250,132.324,43.457
1584600825.106,15.137,24.414,26.367,-5.371,0.000
1584600825.110,0.977,26.855,21.484,-93.750,21.973
1584600825.114,29.297,32.227,22.949,26.367,46.875
1584600825.118,50.781,30.273,26.367,137.207,31.250
1584600825.122,26.855,25.879,24.902,47.852,2.441
1584600825.126,-0.977,23.438,22.461,-85.449,31.250
1584600825.130,15.137,26.367,26.855,-16.113,50.293
1584600825.134,46.875,30.762,27.344,127.441,44.434
1584600825.138,45.410,29.297,22.949,86.914,20.508
1584600825.142,14.160,22.949,20.020,-63.477,66.895
1584600825.145,18.066,25.391,21.484,-51.758,77.148
1584600825.149,50.293,34.180,25.391,103.516,27.832
1584600825.153,46.875,35.156,25.879,122.559,55.176
1584600825.157,20.508,30.762,24.902,-23.438,43.457
1584600825.161,18.555,29.297,22.461,-73.730,32.715
1584600825.165,51.758,34.180,26.855,65.918,30.273
1584600825.169,63.477,32.227,28.320,139.648,32.227
1584600825.173,32.715,25.391,24.414,15.137,71.289
1584600825.177,12.695,26.367,26.367,-83.984,100.098
1584600825.181,38.574,32.227,28.809,18.555,76.660
1584600825.185,68.848,34.180,26.367,134.766,16.113
1584600825.188,50.293,29.297,21.484,67.383,34.668
1584600825.192,10.254,22.949,25.391,-67.383,41.992
1584600825.196,12.207,21.973,31.250,-24.902,28.320
1584600825.200,41.992,24.414,33.691,118.652,36.621
1584600825.204,34.180,22.461,32.227,94.238,20.996
1584600825.208,-1.465,18.066,27.832,-61.523,0.488
1584600825.212,2.441,19.043,25.879,-70.801,39.062
1584600825.216,35.645,20.508,29.785,74.707,40.527
1584600825.220,40.039,23.438,32.227,104.980,-20.508
1584600825.224,12.207,21.973,29.297,-25.391,-33.203
1584600825.227,-4.883,18.555,29.297,-85.938,-26.855
1584600825.231,20.020,21.484,33.203,43.457,28.320
1584600825.235,39.551,24.414,32.227,129.883,67.871
1584600825.239,20.996,20.996,27.344,23.438,15.137
1584600825.243,-0.488,17.090,29.785,-86.426,24.414
1584600825.247,22.461,20.996,34.668,-1.465,33.691
1584600825.251,46.387,24.902,33.203,123.047,30.762
1584600825.255,28.320,20.996,30.762,68.359,91.309
1584600825.259,-1.465,15.625,27.344,-71.777,45.898
1584600825.263,6.836,19.531,28.320,-47.852,8.789
1584600825.267,41.504,27.344,31.738,96.680,21.484
1584600825.270,37.598,25.879,28.320,99.121,-24.414
1584600825.274,6.348,22.461,25.391,-37.109,17.578
1584600825.278,0.000,26.367,31.738,-61.035,40.039
1584600825.282,33.691,32.227,33.691,79.102,36.133
1584600825.286,47.363,27.344,28.320,127.930,38.086
1584600825.290,22.461,22.949,26.367,3.906,15.625
1584600825.294,5.859,22.949,26.367,-71.777,69.824
1584600825.298,29.297,24.902,31.250,41.504,111.816
1584600825.302,47.852,28.809,33.691,144.531,44.434
1584600825.306,26.855,24.902,29.297,51.270,61.523
1584600825.310,6.836,22.949,29.785,-76.172,92.773
1584600825.313,23.438,28.320,32.227,-0.488,59.082
1584600825.317,46.387,27.832,30.273,134.766,41.016
1584600825.321,35.645,25.391,25.391,89.355,-0.977
1584600825.325,11.719,23.438,21.484,-48.340,-25.879
1584600825.329,23.438,25.879,25.391,-29.297,3.418
1584600825.333,55.176,28.809,29.785,109.375,-15.625
1584600825.337,51.758,26.367,26.367,112.305,-52.734
1584600825.341,18.555,20.020,22.949,-25.391,1.465
1584600825.345,12.207,21.973,26.367,-61.523,62.988
1584600825.349,43.457,29.785,30.762,73.242,3.906
1584600825.352,54.199,31.250,30.762,127.930,-40.527
1584600825.356,28.809,27.344,29.297,5.371,-11.230
1584600825.360,11.719,24.902,29.297,-76.172,6.348
1584600825.364,29.297,26.855,31.250,37.598,7.812
1584600825.368,48.828,27.832,33.691,131.836,9.766
1584600825.372,30.762,20.996,30.762,45.410,14.648
1584600825.376,3.418,15.137,24.414,-76.172,-12.695
1584600825.380,19.043,19.043,26.855,-16.602,2.441
1584600825.384,48.828,22.949,30.762,116.211,36.621
1584600825.388,34.668,21.484,25.879,80.566,3.418
1584600825.392,0.977,16.113,24.414,-61.523,11.719
1584600825.395,8.301,19.043,25.879,-62.500,-22.461
1584600825.399,39.551,25.879,26.855,80.566,-16.113
1584600825.403,43.457,25.879,27.832,105.957,7.324
1584600825.407,12.695,20.508,23.926,-29.785,31.738
1584600825.411,-5.859,18.066,23.438,-81.543,77.148
1584600825.415,16.602,22.949,24.902,45.410,31.250
1584600825.419,33.203,24.414,24.414,117.676,33.203
1584600825.423,5.859,18.555,22.461,4.883,35.645
1584600825.427,-13.184,16.113,24.414,-91.797,9.277
1584600825.431,19.043,23.926,27.832,2.441,32.715
1584600825.435,42.969,24.902,29.297,113.770,31.250
1584600825.438,23.926,20.996,29.297,46.387,13.184
1584600825.442,-3.418,18.066,29.297,-83.496,32.715
1584600825.446,7.324,20.996,30.762,-36.133,88.867
1584600825.450,37.598,23.926,31.738,107.422,92.773
1584600825.454,29.297,18.066,30.762,89.844,81.055
1584600825.458,-1.953,14.160,28.809,-55.664,26.367
1584600825.462,2.441,20.020,31.250,-68.848,8.301
1584600825.466,36.133,25.879,38.086,80.566,96.191
1584600825.470,43.457,24.902,34.668,117.676,71.777
1584600825.474,14.160,22.461,27.832,-18.555,-30.273
1584600825.477,5.371,25.391,29.297,-80.078,16.113
1584600825.481,37.598,28.320,31.738,46.875,33.203
1584600825.485,54.688,26.855,31.250,127.930,19.531
1584600825.489,29.297,22.949,28.809,27.344,99.121
1584600825.493,7.324,19.531,29.785,-76.172,30.273
1584600825.497,26.367,23.926,33.203,8.789,-36.621
1584600825.501,50.781,27.832,34.180,130.371,-1.465
1584600825.505,36.133,24.414,31.250,62.500,-19.043
1584600825.509,10.742,25.879,29.785,-64.941,24.902
1584600825.513,26.367,30.762,31.250,-21.484,85.449
1584600825.517,60.059,34.180,30.273,117.676,57.129
1584600825.520,59.570,34.180,29.297,109.375,-20.996
1584600825.524,24.414,27.344,27.344,-29.297,0.488
1584600825.528,16.602,29.297,27.832,-48.828,41.504
1584600825.532,48.828,36.133,32.715,95.215,31.738
1584600825.536,53.711,35.156,33.203,141.602,20.508
1584600825.540,20.508,27.344,29.297,5.859,2.441
1584600825.544,17.090,24.902,26.855,-65.918,-24.414
1584600825.548,62.500,32.715,28.320,53.223,-9.277
1584600825.552,77.148,32.715,33.691,146.484,24.902
1584600825.556,27.832,20.996,33.203,45.410,26.367
1584600825.560,-9.277,16.602,30.762,-79.590,46.387
1584600825.563,18.066,19.043,34.180,-0.488,60.059
1584600825.567,61.035,24.414,36.133,141.602,13.672
1584600825.571,48.828,22.949,34.180,91.309,-18.555
1584600825.575,11.230,18.066,31.738,-62.012,26.855
1584600825.579,13.672,21.484,31.738,-36.621,30.273
1584600825.583,38.574,24.414,35.645,109.863,13.184
1584600825.587,43.945,22.949,35.645,104.492,61.523
1584600825.591,15.625,17.578,32.715,-33.691,27.832
1584600825.595,2.930,20.996,33.203,-70.801,-24.414
1584600825.599,31.738,28.809,36.133,68.848,-20.508
1584600825.602,40.039,28.809,35.645,134.277,11.719
1584600825.606,11.719,25.879,31.250,13.184,-0.977
1584600825.610,-3.418,23.438,29.785,-79.590,-4.395
1584600825.614,25.879,25.391,28.809,26.855,24.414
1584600825.618,48.340,28.809,30.762,136.230,16.602
1584600825.622,16.602,23.438,34.668,50.293,18.555
1584600825.626,-15.625,17.578,32.715,-72.754,53.223
1584600825.630,6.348,22.949,32.227,-9.277,42.480
1584600825.634,37.598,29.297,37.109,122.559,32.715
1584600825.638,29.785,27.832,35.645,79.590,21.973
1584600825.642,-1.953,27.832,33.203,-61.035,41.504
1584600825.645,0.488,27.344,33.203,-51.758,62.500
1584600825.649,31.738,30.273,30.762,92.285,47.852
1584600825.653,34.668,29.785,31.250,114.258,24.414
1584600825.657,12.207,27.344,31.738,-20.996,25.879
1584600825.661,10.742,29.297,33.203,-67.383,91.797
1584600825.665,39.551,31.738,36.133,64.453,95.703
1584600825.669,47.852,29.785,31.738,135.742,33.691
1584600825.673,21.973,24.414,27.344,28.809,44.434
1584600825.677,8.789,24.414,29.785,-67.871,56.152
1584600825.681,30.762,26.855,34.668,21.484,39.062
1584600825.685,45.410,28.320,36.133,129.395,58.105
1584600825.688,23.438,26.367,29.297,58.594,70.312
1584600825.692,3.418,24.414,24.902,-63.965,65.918
1584600825.696,16.602,29.297,28.320,-13.184,86.426
1584600825.700,43.945,31.738,30.762,121.582,38.086
1584600825.704,43.457,31.250,28.809,95.703,10.254
1584600825.708,9.277,25.879,25.879,-52.734,31.738
1584600825.712,11.719,24.902,28.320,-59.082,21.973
1584600825.716,49.316,32.715,31.250,86.914,-2.441
1584600825.720,52.246,31.250,30.273,121.094,18.066
1584600825.724,13.672,21.973,27.832,-15.137,28.809
1584600825.727,-2.930,25.391,27.832,-82.031,17.090
1584600825.731,30.762,34.180,30.762,49.316,41.016
1584600825.735,49.316,32.715,31.738,139.160,56.152
1584600825.739,27.344,26.855,30.273,39.551,37.598
1584600825.743,20.508,24.902,30.762,-51.270,23.926
1584600825.747,53.223,27.344,34.668,42.480,68.848
1584600825.751,62.500,35.156,32.227,138.184,16.602
1584600825.755,25.879,34.180,26.367,46.387,-40.527
1584600825.759,2.930,28.320,23.926,-82.031,17.090
1584600825.763,24.902,34.180,25.879,-25.391,76.660
1584600825.767,51.758,35.156,27.832,119.629,60.547
1584600825.770,49.316,28.809,27.832,110.840,20.996
1584600825.774,18.555,25.879,27.344,-28.809,0.488
1584600825.778,12.695,30.273,27.344,-57.617,-6.348
1584600825.782,44.922,33.691,31.738,83.008,42.969
1584600825.786,50.781,31.250,31.250,125.977,62.012
1584600825.790,21.973,27.832,26.367,-9.277,-0.977
1584600825.794,14.160,28.320,28.320,-75.195,11.719
1584600825.798,42.480,32.227,32.715,52.246,21.484
1584600825.802,59.570,35.156,29.785,144.531,14.160
1584600825.806,36.133,31.738,24.902,39.062,66.406
1584600825.810,11.719,26.855,22.461,-75.195,0.000
1584600825.813,33.203,29.297,24.414,11.230,-9.277
1584600825.817,58.105,32.227,25.391,142.090,60.059
1584600825.821,35.156,27.832,26.367,81.055,55.176
1584600825.825,-0.977,22.949,28.320,-65.430,53.223
1584600825.829,13.184,26.367,28.320,-29.785,7.812
1584600825.833,41.992,32.227,31.250,117.188,17.578
1584600825.837,35.156,28.809,31.250,112.793,9.766
1584600825.841,11.719,23.926,26.367,-33.691,8.789
1584600825.845,9.766,27.344,24.902,-65.430,33.691
1584600825.849,42.969,32.227,31.250,80.078,24.902
1584600825.852,54.688,34.180,30.273,136.230,-14.160
1584600825.856,25.879,29.297,24.414,4.883,8.301
1584600825.860,5.859,24.414,26.367,-83.496,34.180
1584600825.864,28.320,29.785,29.785,34.180,3.418
1584600825.868,53.223,36.621,30.273,138.672,39.062
1584600825.872,32.227,30.273,27.344,43.457,53.223
1584600825.876,3.906,20.996,24.902,-82.031,-19.043
1584600825.880,16.602,28.320,29.785,-7.812,-25.879
1584600825.884,42.480,35.645,31.250,131.348,31.250
1584600825.888,27.832,29.785,26.367,85.449,53.223
1584600825.892,-0.977,25.391,23.926,-59.570,23.926
1584600825.895,14.160,25.879,26.855,-42.969,6.836
1584600825.899,45.898,27.344,30.273,107.422,26.367
1584600825.903,43.945,27.344,28.809,114.258,25.879
1584600825.907,9.277,22.461,25.391,-34.668,35.645
1584600825.911,7.324,23.926,24.414,-69.824,24.414
1584600825.915,39.551,32.715,27.344,69.336,9.277
1584600825.919,49.805,31.738,28.809,127.930,30.762
1584600825.923,28.809,23.926,25.391,-2.441,8.301
1584600825.927,12.695,27.832,22.949,-93.750,-14.648
1584600825.931,39.551,34.668,26.367,25.879,43.457
1584600825.935,55.176,32.715,29.785,143.555,47.363
1584600825.938,26.855,27.344,26.855,52.246,-33.203
1584600825.942,0.977,24.902,23.926,-74.707,41.992
1584600825.946,18.066,27.832,29.297,-4.395,89.844
1584600825.950,47.363,33.203,31.250,125.977,1.465
1584600825.954,36.621,29.785,24.902,86.914,-26.367
1584600825.958,7.812,22.949,21.484,-57.617,-3.418
1584600825.962,14.648,25.391,24.902,-54.688,11.230
1584600825.966,46.875,31.738,26.367,92.285,32.715
1584600825.970,53.223,33.203,25.391,108.887,30.762
1584600825.974,20.508,27.344,21.973,-32.715,-16.113
1584600825.977,11.230,25.879,19.531,-75.195,26.367
1584600825.981,41.992,32.227,21.973,62.012,88.867
1584600825.985,49.316,32.227,24.414,139.160,64.941
1584600825.989,19.043,24.414,20.996,26.367,65.430
1584600825.993,2.441,20.996,18.555,-79.590,46.387
1584600825.997,27.344,27.344,23.926,18.555,58.594
1584600826.001,49.316,28.809,27.344,135.742,49.805
1584600826.005,29.785,21.484,24.414,60.547,-1.953
1584600826.009,0.977,18.555,21.484,-79.590,17.578
1584600826.013,16.602,25.391,23.438,-32.227,18.555
1584600826.017,47.363,30.762,28.320,117.188,5.371
1584600826.020,39.062,26.855,28.320,101.562,52.734
1584600826.024,10.742,22.949,26.855,-41.504,33.691
1584600826.028,8.789,22.949,30.273,-49.805,22.461
1584600826.032,34.180,25.879,32.227,92.285,73.242
1584600826.036,37.598,22.461,28.320,122.070,64.453
1584600826.040,16.602,19.043,26.855,-16.113,0.000
1584600826.044,15.137,22.949,27.832,-83.496,-10.254
1584600826.048,41.504,26.855,30.762,48.828,23.926
1584600826.052,57.617,26.367,32.715,139.160,32.715
1584600826.056,31.738,22.461,29.297,26.855,63.965
1584600826.060,1.953,19.531,29.297,-83.984,95.215
1584600826.063,20.996,22.461,32.227,8.789,45.898
1584600826.067,38.574,23.926,31.738,132.324,21.973
1584600826.071,22.949,23.438,25.879,70.312,39.062
1584600826.075,0.977,20.508,21.973,-66.895,24.902
1584600826.079,16.602,20.508,27.344,-30.273,12.207
1584600826.083,64.941,22.949,32.715,129.395,62.500
1584600826.087,67.871,22.461,29.785,129.395,57.617
1584600826.091,15.137,24.414,21.484,-39.062,54.688
1584600826.095,-3.418,25.391,23.438,-82.031,68.848
1584600826.099,30.273,26.367,29.297,66.895,45.898
1584600826.102,41.992,25.391,28.320,117.188,38.574
1584600826.106,8.789,23.926,26.367,-20.996,-13.672
1584600826.110,-8.789,23.438,24.902,-93.262,-6.836
1584600826.114,23.926,30.273,26.367,33.203,41.504
1584600826.118,49.316,35.645,27.832,131.836,15.625
1584600826.122,26.367,29.297,25.391,30.273,8.301
1584600826.126,1.465,25.879,25.391,-90.332,-7.812
1584600826.130,23.438,30.273,29.297,-14.648,-13.184
1584600826.134,55.176,36.621,30.762,120.117,44.922
1584600826.138,37.598,33.691,31.250,77.148,60.059
1584600826.142,1.953,25.879,28.809,-64.941,57.129
1584600826.145,12.207,25.879,27.832,-39.551,0.000
1584600826.149,38.574,29.785,29.785,105.469,16.113
1584600826.153,35.156,28.320,28.809,110.840,34.180
1584600826.157,2.930,20.508,25.391,-30.273,23.438
1584600826.161,2.930,22.461,23.926,-74.219,59.082
1584600826.165,41.992,34.668,28.320,62.500,59.082
1584600826.169,53.223,38.086,29.297,130.371,23.438
1584600826.173,29.785,33.691,24.902,10.742,-12.207
1584600826.177,15.137,33.203,21.973,-83.496,25.391
1584600826.181,41.016,34.180,27.344,19.531,19.531
1584600826.185,60.547,32.227,30.273,133.301,-22.949
1584600826.188,37.598,26.367,26.367,50.781,43.945
1584600826.192,15.137,23.438,24.414,-74.707,42.969
1584600826.196,38.086,29.785,25.879,-8.789,20.508
1584600826.200,61.523,32.227,28.320,127.930,63.965
1584600826.204,46.387,25.879,24.414,94.238,25.391
1584600826.208,20.996,23.438,20.996,-55.664,-2.441
1584600826.212,24.902,31.250,23.926,-52.246,45.898
1584600826.216,52.246,34.668,31.738,103.027,83.984
1584600826.220,48.828,26.855,34.180,122.559,43.457
1584600826.224,17.090,21.973,29.297,-21.484,-24.414
1584600826.227,8.789,26.855,28.320,-74.219,-2.441
1584600826.231,38.574,31.738,31.250,62.988,39.062
1584600826.235,58.105,30.762,32.227,132.812,5.371
1584600826.239,32.715,26.855,30.273,18.555,-8.789
1584600826.243,5.859,24.414,29.297,-74.219,55.664
1584600826.247,27.832,28.809,32.227,22.461,52.246
1584600826.251,55.664,29.297,34.180,137.695,-24.902
1584600826.255,37.598,25.879,32.227,62.500,-17.090
1584600826.259,3.906,22.949,31.738,-65.918,38.574
1584600826.263,13.184,24.902,31.738,-10.254,27.832
1584600826.267,44.922,27.344,30.762,131.836,9.766
1584600826.270,59.082,25.391,29.297,122.559,37.598
1584600826.274,33.691,24.902,28.809,-19.043,61.523
1584600826.278,2.441,27.344,27.832,-57.617,32.227
1584600826.282,13.184,31.250,27.344,71.289,31.738
1584600826.286,24.414,28.320,30.762,119.141,21.484
1584600826.290,0.977,24.902,27.344,-14.160,3.418
1584600826.294,-12.695,24.414,21.484,-93.750,70.801
1584600826.298,12.695,26.367,23.926,27.832,72.754
1584600826.302,28.320,27.832,27.832,114.258,51.270
1584600826.306,6.836,20.996,25.879,8.789,46.875
1584600826.310,-13.184,20.508,24.414,-101.074,35.156
1584600826.313,10.254,24.902,28.320,-9.766,32.227
1584600826.317,38.086,27.832,30.273,115.723,63.477
1584600826.321,22.461,24.414,29.297,54.688,39.062
1584600826.325,-7.812,18.555,24.902,-86.914,50.293
1584600826.329,5.371,22.461,25.879,-45.410,29.785
1584600826.333,38.086,28.320,26.855,104.980,-36.133
1584600826.337,37.109,24.414,25.879,92.773,-11.230
1584600826.341,7.812,20.508,22.949,-58.594,-7.812
1584600826.345,6.348,22.949,22.949,-78.613,41.016
1584600826.349,34.668,27.832,28.809,77.637,60.059
1584600826.352,39.062,27.344,29.785,123.047,25.391
1584600826.356,16.602,21.484,26.367,-11.230,17.578
1584600826.360,5.371,20.996,26.367,-88.867,45.898
1584600826.364,24.414,30.762,27.832,34.668,23.438
1584600826.368,34.180,33.203,27.832,130.859,58.105
1584600826.372,8.301,26.367,26.367,28.809,61.523
1584600826.376,-9.766,22.461,21.484,-90.332,35.156
1584600826.380,17.578,27.832,20.996,-5.859,38.574
1584600826.384,47.852,30.762,22.461,125.488,5.859
1584600826.388,37.109,26.855,20.508,64.453,-12.695
1584600826.392,3.906,25.391,19.531,-80.078,-0.977
1584600826.395,11.230,29.297,22.461,-45.410,-18.066
1584600826.399,41.504,32.227,26.855,110.352,-25.391
1584600826.403,41.992,32.715,26.855,110.352,29.297
1584600826.407,12.207,28.320,23.926,-42.480,-14.160
1584600826.411,12.207,23.926,27.344,-69.824,7.324
1584600826.415,43.945,28.320,32.715,77.637,35.156
1584600826.419,53.223,29.297,31.250,128.418,0.000
1584600826.423,24.414,26.367,28.809,0.000,29.785
1584600826.427,4.883,26.367,28.320,-83.008,59.082
1584600826.431,29.297,30.273,28.320,33.203,37.598
1584600826.435,47.363,33.691,28.320,137.695,-11.719
1584600826.438,24.414,29.785,25.879,44.922,-20.996
1584600826.442,0.488,22.461,23.926,-81.055,-4.395
1584600826.446,18.066,24.902,26.367,-10.742,27.832
1584600826.450,45.410,31.738,28.809,125.000,34.668
1584600826.454,33.691,27.344,29.297,80.566,29.785
1584600826.458,-2.930,20.508,25.391,-67.383,20.996
1584600826.462,2.441,24.414,27.832,-52.246,-48.340
1584600826.466,36.621,29.297,35.156,98.633,-58.105
1584600826.470,30.762,25.391,33.691,110.840,74.707
1584600826.474,-2.930,17.578,30.273,-34.668,93.262
1584600826.477,-5.371,19.043,32.715,-85.938,34.180
1584600826.481,25.391,25.879,34.668,55.176,28.320
1584600826.485,37.598,24.902,30.762,133.301,8.301
1584600826.489,13.184,18.555,27.832,9.766,45.898
1584600826.493,-6.348,19.043,25.391,-91.309,61.523
1584600826.497,21.973,28.809,26.367,21.484,43.457
1584600826.501,45.410,29.297,28.320,137.695,14.160
1584600826.505,19.043,21.484,25.879,49.805,-10.254
1584600826.509,-7.812,20.020,23.438,-86.426,20.996
1584600826.513,10.742,23.926,26.855,-27.832,71.289
1584600826.517,41.016,28.320,31.738,117.676,34.180
1584600826.520,30.273,24.414,31.738,88.867,-5.859
1584600826.524,-1.465,18.555,25.391,-69.336,24.902
1584600826.528,8.301,23.926,25.391,-65.918,48.340
1584600826.532,43.457,30.762,31.250,92.285,30.762
1584600826.536,47.852,30.273,29.785,119.629,17.578
1584600826.540,20.996,24.902,24.902,-23.438,20.020
1584600826.544,16.602,26.367,24.414,-77.148,12.207
1584600826.548,43.945,31.250,30.273,62.500,17.090
1584600826.552,52.734,25.879,31.250,142.090,30.273
1584600826.556,28.320,20.996,28.320,26.367,41.016
1584600826.560,7.324,21.973,26.855,-82.520,-20.996
1584600826.563,31.738,25.879,29.785,18.066,-47.363
1584600826.567,57.129,28.809,33.203,138.672,4.883
1584600826.571,37.598,29.297,29.785,59.082,58.105
1584600826.575,9.766,28.320,27.832,-78.613,30.273
1584600826.579,30.273,28.809,30.762,-25.879,15.625
1584600826.583,66.406,34.668,32.227,117.676,10.742
1584600826.587,50.781,33.691,31.250,105.957,13.184
1584600826.591,20.020,21.973,31.250,-19.043,42.480
1584600826.595,31.250,20.996,33.691,-18.066,2.930
1584600826.599,46.875,35.645,31.250,108.887,-33.203
1584600826.602,27.344,39.062,25.391,117.188,48.828
1584600826.606,-0.488,28.320,20.020,-23.926,52.246
1584600826.610,2.930,24.902,22.949,-81.055,-7.324
1584600826.614,37.109,26.367,28.320,53.223,2.930
1584600826.618,53.223,25.879,29.297,140.137,35.645
1584600826.622,33.691,22.461,27.832,40.039,15.625
1584600826.626,12.207,23.438,27.344,-72.266,15.625
1584600826.630,32.715,32.227,30.762,12.695,41.992
1584600826.634,58.594,33.203,30.273,150.879,37.109
1584600826.638,41.992,25.391,27.832,91.309,31.738
1584600826.642,17.578,24.414,27.344,-55.664,12.207
1584600826.645,31.250,29.785,28.320,-22.949,46.875
1584600826.649,61.523,28.320,32.715,125.000,79.102
1584600826.653,61.035,24.414,31.250,116.211,23.926
1584600826.657,27.344,21.973,29.785,-33.203,31.250
1584600826.661,11.719,20.996,33.203,-58.594,22.461
1584600826.665,42.480,26.367,37.109,91.797,6.836
1584600826.669,54.688,29.785,35.645,141.113,41.504
1584600826.673,24.902,24.414,29.297,-0.977,0.000
1584600826.677,10.742,22.949,29.297,-81.055,-14.648
1584600826.681,40.527,29.297,30.762,43.945,42.480
1584600826.685,59.082,32.227,32.715,146.484,80.078
1584600826.688,36.621,27.832,29.785,47.852,78.613
1584600826.692,12.695,26.367,26.855,-84.961,2.441
1584600826.696,30.762,30.273,29.297,-12.207,48.340
1584600826.700,59.082,32.227,31.738,128.418,72.266
1584600826.704,37.109,30.762,30.762,82.031,15.625
1584600826.708,-2.930,26.367,28.320,-61.523,26.855
1584600826.712,4.395,29.297,28.809,-41.016,29.297
1584600826.716,36.621,32.227,31.250,109.375,43.945
1584600826.720,37.598,28.320,32.715,111.328,45.410
1584600826.724,12.207,23.926,28.809,-31.250,37.109
1584600826.727,8.789,24.902,28.320,-67.871,41.016
1584600826.731,44.434,31.738,33.203,70.312,23.926
1584600826.735,56.641,33.691,33.691,134.277,78.125
1584600826.739,26.855,27.832,28.320,9.277,82.520
1584600826.743,11.719,26.367,29.785,-85.449,-2.441
1584600826.747,36.133,31.738,35.156,19.531,-6.836
1584600826.751,53.711,34.668,36.621,136.230,26.367
1584600826.755,36.133,32.227,36.133,65.430,57.129
1584600826.759,11.230,26.855,33.691,-64.453,44.922
1584600826.763,21.973,31.250,32.715,-18.066,35.645
1584600826.767,55.176,38.086,33.203,119.629,20.996
1584600826.770,51.758,31.738,31.738,94.238,5.371
1584600826.774,20.508,25.879,29.297,-49.805,-0.488
1584600826.778,16.113,30.273,29.785,-47.363,6.836
1584600826.782,46.875,34.180,33.691,105.957,65.430
1584600826.786,54.199,30.762,34.668,130.371,60.059
1584600826.790,27.344,24.414,27.832,-9.277,27.344
1584600826.794,24.414,27.832,23.926,-63.965,-6.836
1584600826.798,51.758,35.645,30.273,66.895,18.066
1584600826.802,55.664,33.203,31.250,144.043,75.684
1584600826.806,24.414,23.438,26.367,23.438,41.992
1584600826.810,5.859,22.461,26.855,-85.938,-9.766
1584600826.813,30.273,32.227,30.273,13.184,25.391
1584600826.817,68.848,36.133,29.785,145.996,63.477
1584600826.821,55.664,29.297,28.809,84.473,-11.719
1584600826.825,4.883,22.461,32.227,-69.336,-4.395
1584600826.829,3.906,24.902,37.598,-40.527,54.199
1584600826.833,37.598,27.344,41.016,112.793,50.781
1584600826.837,39.062,24.902,39.551,102.539,17.578
1584600826.841,7.812,21.484,38.574,-47.363,5.859
1584600826.845,5.859,20.508,39.062,-66.406,57.617
1584600826.849,40.527,24.902,37.598,76.660,59.570
1584600826.852,44.434,25.391,35.156,111.328,40.527
1584600826.856,14.648,18.555,33.691,-20.020,64.453
1584600826.860,-4.883,17.578,33.691,-83.008,19.043
1584600826.864,12.695,23.926,33.691,34.180,30.762
1584600826.868,33.203,25.879,34.668,125.000,67.871
1584600826.872,18.555,20.508,32.227,26.855,21.484
1584600826.876,-8.301,18.555,28.809,-88.867,18.066
1584600826.880,10.742,21.973,30.762,-10.742,45.410
1584600826.884,38.574,25.879,29.297,114.258,33.691
1584600826.888,26.855,24.414,27.832,67.383,5.859
1584600826.892,0.488,20.020,27.344,-68.359,-27.344
1584600826.895,6.348,20.996,26.855,-42.969,-72.754
1584600826.899,37.109,28.320,29.785,105.469,-24.414
1584600826.903,37.109,28.320,28.809,104.492,54.199
1584600826.907,12.207,21.484,26.855,-34.668,67.871
1584600826.911,12.695,25.391,27.344,-64.453,24.902
1584600826.915,42.480,31.738,31.738,67.383,-4.883
1584600826.919,50.781,30.273,32.715,129.883,71.777
1584600826.923,26.855,25.391,27.832,9.277,85.938
1584600826.927,13.184,22.949,25.391,-76.172,5.371
1584600826.931,37.109,27.344,32.227,40.039,-6.836
1584600826.935,55.664,29.297,33.691,141.602,3.418
1584600826.938,26.367,23.926,26.367,56.641,-10.742
1584600826.942,-0.488,21.484,26.855,-65.918,7.812
1584600826.946,20.020,28.320,32.715,-5.859,-19.531
1584600826.950,48.828,31.738,33.691,127.441,5.859
1584600826.954,36.133,27.832,30.273,88.379,66.895
1584600826.958,3.906,24.902,27.832,-58.594,45.898
1584600826.962,15.137,30.762,29.785,-46.387,28.809
1584600826.966,46.875,32.715,32.227,104.980,8.301
1584600826.970,49.316,28.320,31.738,121.582,54.199
1584600826.974,21.973,23.438,28.809,-16.113,82.031
1584600826.977,9.766,22.949,29.785,-62.500,-9.277
1584600826.981,35.645,27.832,35.156,59.570,-17.090
1584600826.985,48.340,27.344,34.668,128.418,36.133
1584600826.989,19.531,21.484,28.320,19.043,40.527
1584600826.993,-1.953,20.020,26.855,-77.637,20.020
1584600826.997,26.367,26.367,29.297,26.367,-16.602
1584600827.001,49.805,29.785,27.832,128.906,7.812
1584600827.005,32.227,25.391,22.949,41.016,1.953
1584600827.009,8.789,22.461,20.996,-77.148,-4.883
1584600827.013,21.973,28.809,25.391,-16.602,22.461
1584600827.017,48.340,31.250,26.855,116.699,-4.883
1584600827.020,41.016,27.832,21.973,90.332,-14.160
1584600827.024,20.508,26.367,17.578,-40.039,35.156
1584600827.028,36.621,25.879,30.273,-29.785,46.875
1584600827.032,48.828,23.438,40.039,97.656,8.789
1584600827.036,22.461,20.996,32.715,97.656,-18.066
1584600827.040,-9.277,17.090,28.320,-38.086,-8.789
1584600827.044,-9.766,15.137,28.809,-82.520,-20.020
1584600827.048,25.879,20.020,33.691,43.945,-24.902
1584600827.052,42.480,24.414,35.156,120.605,13.672
1584600827.056,16.602,17.578,33.691,20.996,26.855
1584600827.060,-9.766,9.766,40.527,-78.613,66.406
1584600827.063,1.953,9.766,48.340,15.137,84.473
1584600827.067,24.902,9.277,51.758,134.277,41.504
1584600827.071,14.160,7.324,46.875,65.918,51.758
1584600827.075,-4.883,8.789,39.551,-66.406,49.805
1584600827.079,14.160,15.137,40.039,-25.391,20.508
1584600827.083,46.875,20.508,43.457,111.816,14.648
1584600827.087,33.203,20.508,41.016,102.051,13.184
1584600827.091,-3.906,15.625,37.109,-38.574,9.277
1584600827.095,0.000,18.066,40.527,-58.105,64.941
1584600827.099,39.062,24.902,43.457,89.844,40.527
1584600827.102,39.551,20.508,40.527,132.324,15.137
1584600827.106,-0.977,13.184,38.086,2.930,46.387
1584600827.110,-9.277,16.113,37.109,-65.918,7.812
1584600827.114,20.996,23.926,38.086,50.293,41.992
1584600827.118,40.527,21.484,37.598,139.160,96.191
1584600827.122,17.090,16.113,33.691,39.551,47.852
1584600827.126,-5.859,16.602,33.691,-75.684,7.812
1584600827.130,20.508,20.996,41.016,5.371,22.949
1584600827.134,44.434,22.461,42.969,132.324,9.277
1584600827.138,31.738,19.531,39.062,78.613,-3.906
1584600827.142,8.789,18.555,38.574,-53.223,28.809
1584600827.145,15.137,20.020,39.062,-30.273,21.973
1584600827.149,45.410,24.414,38.574,107.422,49.316
1584600827.153,47.363,24.414,33.203,109.863,38.086
1584600827.157,17.578,20.508,26.855,-29.785,19.531
1584600827.161,13.672,21.484,29.297,-64.941,23.438
1584600827.165,42.969,24.414,33.203,67.871,-12.207
1584600827.169,43.945,23.926,31.738,125.000,45.898
1584600827.173,9.766,17.578,28.320,3.906,44.434
1584600827.177,-3.906,16.602,26.367,-76.660,40.527
1584600827.181,18.555,24.414,29.297,31.738,68.848
1584600827.185,33.203,27.832,32.227,125.977,44.922
1584600827.188,16.113,23.926,28.320,38.574,2.930
1584600827.192,-1.465,23.926,26.855,-71.777,13.672
1584600827.196,20.508,29.297,29.785,-8.301,44.922
1584600827.200,44.922,33.203,31.738,117.188,38.086
1584600827.204,29.785,30.273,28.809,80.078,15.137
1584600827.208,2.441,28.320,28.809,-53.711,7.324
1584600827.212,10.742,29.785,30.273,-41.504,-4.395
1584600827.216,40.527,33.203,32.227,98.145,34.668
1584600827.220,40.527,34.180,31.250,119.141,93.750
1584600827.224,11.230,28.809,24.414,-9.277,78.125
1584600827.227,8.789,29.785,24.902,-60.059,66.406
1584600827.231,46.875,36.621,31.250,65.430,58.594
1584600827.235,63.477,36.133,31.738,135.254,29.297
1584600827.239,37.598,28.320,25.391,23.926,51.270
1584600827.243,24.414,25.879,23.438,-64.453,37.109
1584600827.247,45.898,30.762,28.809,36.133,56.641
1584600827.251,60.547,34.180,32.227,141.113,29.785
1584600827.255,41.016,29.297,30.273,62.012,3.418
1584600827.259,12.207,24.414,27.832,-59.570,32.715
1584600827.263,27.344,29.297,30.273,-3.906,18.555
1584600827.267,60.547,29.297,35.156,136.719,3.906
1584600827.270,62.500,26.367,36.133,118.652,-36.621
1584600827.274,23.438,27.832,32.227,-27.832,31.738
1584600827.278,3.418,32.227,30.273,-53.711,29.297
1584600827.282,35.645,34.668,34.180,78.125,-56.152
1584600827.286,41.992,30.762,31.250,103.516,0.977
1584600827.290,11.230,24.902,26.367,-27.344,62.012
1584600827.294,6.348,26.855,23.438,-73.730,-3.418
1584600827.298,33.203,30.762,24.414,49.805,17.578
1584600827.302,42.480,29.297,28.809,126.465,28.320
1584600827.306,19.043,23.926,28.809,25.391,-23.438
1584600827.310,2.441,20.996,28.320,-74.707,20.996
1584600827.313,26.855,24.414,32.227,12.207,71.777
1584600827.317,50.293,29.297,33.691,124.512,35.156
1584600827.321,31.250,25.879,28.320,55.176,-33.203
1584600827.325,4.883,20.508,24.902,-72.266,17.090
1584600827.329,11.719,24.902,25.391,-31.250,57.617
1584600827.333,37.109,29.297,24.414,96.680,25.391
1584600827.337,31.738,29.297,25.391,83.008,40.527
1584600827.341,6.348,23.926,24.902,-46.875,28.809
1584600827.345,6.348,22.949,26.855,-62.500,0.000
1584600827.349,36.621,30.762,29.785,75.195,26.855
1584600827.352,43.945,30.762,29.297,116.211,-12.695
1584600827.356,11.230,25.391,24.902,-10.254,-43.457
1584600827.360,1.465,28.809,24.902,-73.242,22.461
1584600827.364,34.668,33.691,28.809,46.875,49.316
1584600827.368,50.293,34.180,27.344,129.883,16.602
1584600827.372,21.973,30.273,23.438,33.203,13.672
1584600827.376,1.953,27.832,22.461,-79.102,83.984
1584600827.380,20.996,31.250,26.855,-5.859,77.637
1584600827.384,46.387,32.715,29.785,120.605,8.301
1584600827.388,34.180,28.320,28.809,72.266,33.691
1584600827.392,0.488,21.973,29.297,-60.547,-4.883
1584600827.395,16.602,24.902,28.320,-37.598,-42.480
1584600827.399,44.922,28.809,28.809,96.191,-15.625
1584600827.403,37.109,25.391,33.203,101.074,-28.809
1584600827.407,9.277,23.438,32.715,-27.344,0.000
1584600827.411,1.953,24.414,28.320,-63.477,92.773
1584600827.415,36.621,30.762,30.273,66.895,52.734
1584600827.419,50.781,32.715,29.785,118.164,8.789
1584600827.423,25.879,29.297,25.391,-4.883,47.852
1584600827.427,9.277,29.785,27.832,-81.055,61.035
1584600827.431,35.645,33.691,31.738,30.762,42.969
1584600827.435,55.176,32.227,34.180,127.441,20.996
1584600827.438,28.809,24.414,32.227,45.898,23.926
1584600827.442,5.859,20.020,26.855,-62.012,26.855
1584600827.446,32.715,22.461,31.738,14.160,47.852
1584600827.450,59.570,30.762,34.180,132.812,48.340
1584600827.454,34.180,33.203,26.367,68.359,38.086
1584600827.458,5.371,29.297,20.020,-70.312,50.293
1584600827.462,18.066,30.762,19.043,-55.664,33.691
1584600827.466,52.734,31.738,21.484,81.055,-9.766
1584600827.470,47.363,27.344,22.949,98.633,14.160
1584600827.474,-2.441,21.973,22.949,-34.668,20.020
1584600827.477,-8.789,26.855,27.344,-68.359,9.766
1584600827.481,31.250,34.668,32.715,68.848,53.223
1584600827.485,43.457,34.180,34.180,130.371,65.430
1584600827.489,22.461,29.297,28.320,18.066,72.266
1584600827.493,7.812,28.320,26.367,-71.777,46.387
1584600827.497,27.832,34.180,29.785,24.414,22.949
1584600827.501,54.199,37.598,28.809,125.977,-2.441
1584600827.505,39.551,33.203,27.344,52.734,-38.574
1584600827.509,10.742,29.297,27.344,-64.941,43.945
1584600827.513,23.926,31.738,27.832,-16.602,84.961
1584600827.517,47.363,36.133,30.762,109.863,-17.090
1584600827.520,37.598,34.180,31.250,85.938,-25.879
1584600827.524,5.371,29.297,28.320,-48.340,53.711
1584600827.528,6.836,29.297,31.250,-49.316,36.133
1584600827.532,40.527,34.180,33.691,90.332,59.082
1584600827.536,37.598,31.738,30.273,115.723,44.434
1584600827.540,10.254,28.320,26.855,-21.484,-5.859
1584600827.544,5.859,29.785,28.320,-78.613,-31.738
1584600827.548,37.109,33.691,33.203,51.270,2.441
1584600827.552,54.199,35.645,31.738,127.441,78.613
1584600827.556,26.855,31.738,27.832,21.973,30.762
1584600827.560,2.930,32.715,29.297,-76.660,-16.113
1584600827.563,21.973,40.527,34.180,19.043,35.156
1584600827.567,48.828,39.062,34.668,138.184,61.523
1584600827.571,40.527,32.227,33.691,68.848,22.461
1584600827.575,12.695,29.297,31.250,-59.570,10.742
1584600827.579,26.855,29.785,32.227,-8.789,13.184
1584600827.583,78.613,28.809,38.086,149.414,8.301
1584600827.587,68.359,30.273,34.180,123.047,42.480
1584600827.591,-2.930,30.762,23.438,-62.988,70.801
1584600827.595,-15.625,29.297,20.996,-89.355,70.312
1584600827.599,25.879,32.715,23.926,65.430,3.418
1584600827.602,32.715,31.250,27.344,92.285,-0.977
1584600827.606,-0.488,27.344,26.367,-51.270,28.809
1584600827.610,-7.812,30.273,22.461,-104.492,56.152
1584600827.614,18.555,33.203,24.902,25.879,41.992
1584600827.618,15.625,28.809,27.344,103.027,0.488
1584600827.622,-14.648,22.461,23.438,-6.348,39.551
1584600827.626,-15.625,23.438,25.879,-101.562,42.480
1584600827.630,16.113,28.809,33.203,-1.465,51.270
1584600827.634,36.621,29.785,34.180,120.117,22.949
1584600827.638,18.555,25.391,35.156,58.105,-10.254
1584600827.642,-14.160,21.973,35.156,-81.543,0.977
1584600827.645,3.906,20.508,32.715,-44.434,-11.719
1584600827.649,39.062,23.438,32.227,103.516,23.438
1584600827.653,31.738,23.438,29.297,90.820,70.801
1584600827.657,0.488,19.531,21.973,-53.223,86.426
1584600827.661,-0.977,20.996,24.902,-70.801,57.617
1584600827.665,34.180,27.832,29.297,75.684,74.707
1584600827.669,41.992,29.785,24.902,122.559,117.188
1584600827.673,12.695,23.926,21.484,-13.184,121.094
1584600827.677,5.371,22.949,23.438,-81.543,30.762
1584600827.681,33.203,28.320,28.809,42.969,-12.695
1584600827.685,48.340,30.762,30.762,128.418,20.020
1584600827.688,24.414,24.902,25.391,23.438,48.340
1584600827.692,0.977,22.949,23.438,-91.309,1.465
1584600827.696,21.973,29.785,28.809,-3.418,26.855
1584600827.700,46.875,29.785,32.227,133.789,100.098
1584600827.704,31.250,21.484,31.250,79.102,54.688
1584600827.708,-0.977,18.066,27.832,-73.242,13.184
1584600827.712,12.695,24.414,28.320,-43.457,18.555
1584600827.716,47.852,33.203,28.809,115.234,32.227
1584600827.720,40.039,30.762,26.367,114.746,22.461
1584600827.724,2.930,21.973,21.484,-36.133,-36.621
1584600827.727,0.977,23.438,24.902,-65.918,10.254
1584600827.731,39.062,29.297,29.297,82.520,51.758
1584600827.735,44.922,27.832,26.367,133.301,22.949
1584600827.739,9.277,20.996,22.949,0.977,42.480
1584600827.743,-5.371,18.555,21.484,-82.520,9.277
1584600827.747,27.344,23.438,27.344,33.691,12.695
1584600827.751,52.246,23.926,30.762,137.207,108.398
1584600827.755,28.320,20.996,27.344,38.574,81.055
1584600827.759,-1.465,19.043,24.414,-83.496,6.836
1584600827.763,18.066,21.973,26.855,-4.883,47.363
1584600827.767,47.852,25.391,31.738,131.348,56.641
1584600827.770,37.598,20.996,31.250,86.914,56.152
1584600827.774,13.672,20.508,25.879,-56.641,30.762
1584600827.778,26.367,27.832,24.414,-40.527,-9.766
1584600827.782,55.176,26.855,30.762,102.539,-18.555
1584600827.786,43.945,22.949,31.250,114.746,1.953
1584600827.790,8.301,20.996,25.391,-22.949,32.715
1584600827.794,1.953,20.508,26.367,-65.430,52.734
1584600827.798,32.715,27.832,30.762,61.523,116.211
1584600827.802,49.316,31.250,31.738,125.977,30.273
1584600827.806,26.367,23.926,29.297,17.578,9.277
1584600827.810,8.789,21.973,27.832,-73.730,22.461
1584600827.813,29.785,29.785,30.762,24.414,-12.695
1584600827.817,52.246,31.250,32.227,131.836,30.273
1584600827.821,37.598,24.414,27.832,55.664,29.785
1584600827.825,13.672,20.996,26.367,-71.777,-3.906
1584600827.829,27.344,25.879,28.320,-19.043,0.977
1584600827.833,51.270,32.715,31.738,116.211,-7.324
1584600827.837,42.480,30.762,30.273,93.262,-25.391
1584600827.841,13.672,23.438,25.391,-46.875,2.441
1584600827.845,13.672,26.367,25.879,-58.594,30.762
1584600827.849,44.434,33.691,28.809,85.938,58.594
1584600827.852,41.992,29.785,25.879,119.629,70.801
1584600827.856,13.672,22.949,23.438,-10.742,41.016
1584600827.860,5.859,21.484,24.902,-72.754,40.527
1584600827.864,36.133,27.344,25.879,42.969,27.832
1584600827.868,51.270,27.344,24.414,124.023,-1.465
1584600827.872,25.879,23.926,20.508,22.461,20.508
1584600827.876,2.441,24.414,22.949,-81.055,43.457
1584600827.880,15.137,26.855,28.809,5.371,5.371
1584600827.884,39.062,27.344,26.855,121.094,2.930
1584600827.888,22.461,22.461,21.973,57.617,21.484
1584600827.892,-0.977,20.508,23.926,-68.848,7.812
1584600827.895,17.578,22.949,26.855,-32.227,36.621
1584600827.899,48.828,24.902,28.320,107.422,22.949
1584600827.903,46.387,25.391,29.297,105.957,31.738
1584600827.907,13.672,21.973,25.879,-35.645,39.062
1584600827.911,10.254,23.438,27.832,-56.641,13.672
1584600827.915,41.016,27.832,31.738,77.637,23.926
1584600827.919,48.828,27.832,29.297,119.141,13.672
1584600827.923,20.508,23.438,26.367,-3.418,18.066
1584600827.927,5.859,19.531,27.344,-73.730,11.230
1584600827.931,31.738,22.461,30.273,39.062,38.086
1584600827.935,46.387,26.855,31.250,125.977,31.250
1584600827.938,21.484,20.996,29.785,43.945,32.227
1584600827.942,0.000,17.578,27.832,-63.477,57.129
1584600827.946,20.508,26.367,30.762,4.395,63.477
1584600827.950,44.434,32.227,31.250,127.930,20.508
1584600827.954,28.809,29.785,27.832,80.078,26.367
1584600827.958,-1.953,23.438,25.391,-52.246,37.598
1584600827.962,5.371,23.926,27.344,-34.668,2.930
1584600827.966,33.691,25.879,30.762,97.656,-18.066
1584600827.970,28.320,22.461,30.273,100.098,-17.578
1584600827.974,0.977,19.043,26.367,-29.297,25.879
1584600827.977,2.930,22.461,23.438,-68.848,-24.414
1584600827.981,30.762,28.809,26.367,56.641,-34.668
1584600827.985,35.645,25.391,27.344,121.094,77.148
1584600827.989,15.137,20.996,21.973,9.766,114.746
1584600827.993,0.000,20.996,22.461,-75.195,100.586
1584600827.997,18.555,26.367,27.832,25.879,57.129
1584600828.001,34.668,30.273,29.785,125.000,50.781
1584600828.005,16.602,25.391,25.391,42.480,17.090
1584600828.009,-1.465,19.531,25.879,-72.754,-32.227
1584600828.013,16.602,21.484,31.738,-12.695,-10.254
1584600828.017,41.016,24.902,31.738,110.352,16.602
1584600828.020,31.250,21.484,27.832,77.148,7.812
1584600828.024,4.395,17.578,25.391,-50.781,-28.320
1584600828.028,10.742,22.461,26.855,-46.387,-33.203
1584600828.032,35.645,27.344,25.391,83.984,-36.621
1584600828.036,39.062,24.902,20.996,100.098,21.484
1584600828.040,18.555,18.066,19.531,-24.902,-9.277
1584600828.044,13.672,19.531,21.484,-73.242,-29.297
1584600828.048,38.086,23.926,23.926,48.828,13.672
1584600828.052,40.039,20.996,26.367,124.512,-31.250
1584600828.056,9.766,17.578,26.367,16.602,12.695
1584600828.060,-6.348,17.578,24.414,-74.707,41.016
1584600828.063,16.602,22.949,27.344,23.438,18.555
1584600828.067,39.551,27.344,28.809,126.465,18.066
1584600828.071,25.879,22.949,27.344,51.270,41.992
1584600828.075,8.301,21.484,27.344,-66.406,63.965
1584600828.079,22.949,27.344,28.320,-18.555,23.926
1584600828.083,42.480,30.762,32.227,109.863,18.555
1584600828.087,38.086,30.273,29.297,88.379,76.660
1584600828.091,8.789,25.879,26.367,-48.340,49.805
1584600828.095,-1.465,26.367,31.738,-48.340,17.578
1584600828.099,30.273,28.320,36.621,95.703,18.066
1584600828.102,39.062,25.879,34.668,119.629,-13.184
1584600828.106,11.230,24.902,27.344,-16.602,25.391
1584600828.110,11.230,24.902,27.344,-71.777,23.926
1584600828.114,41.992,25.391,27.832,53.711,2.441
1584600828.118,46.875,25.879,26.367,125.977,-2.930
1584600828.122,21.484,20.020,22.461,19.043,-20.508
1584600828.126,5.371,18.066,20.020,-83.496,-14.648
1584600828.130,24.902,23.926,28.320,2.441,17.090
1584600828.134,47.852,25.391,30.762,121.094,49.316
1584600828.138,27.832,22.949,27.344,57.617,41.504
1584600828.142,0.488,19.531,28.320,-77.148,44.922
1584600828.145,15.625,24.414,31.250,-35.156,-4.883
1584600828.149,41.992,29.785,34.668,104.980,-31.250
1584600828.153,34.180,24.414,29.785,83.496,-12.695
1584600828.157,5.859,22.461,26.367,-57.129,28.809
1584600828.161,8.301,24.902,28.320,-68.359,74.707
1584600828.165,43.457,31.738,28.320,72.754,29.785
1584600828.169,51.270,34.180,27.832,112.305,7.324
1584600828.173,21.484,29.785,25.391,-21.484,-14.648
1584600828.177,7.812,25.879,26.367,-85.449,-8.789
1584600828.181,45.898,27.344,27.344,46.387,33.691
1584600828.185,74.219,29.297,27.832,137.207,47.852
1584600828.188,22.461,23.438,26.855,12.695,34.668
1584600828.192,-19.531,16.602,24.414,-106.445,2.441
1584600828.196,14.648,22.461,25.879,-3.906,41.504
1584600828.200,41.992,27.344,27.832,125.000,29.785
1584600828.204,19.531,21.973,26.855,64.453,-2.930
1584600828.208,-2.441,19.531,26.367,-73.242,-9.766
1584600828.212,17.578,24.414,24.902,-39.062,-0.977
1584600828.216,42.480,27.344,25.879,102.051,40.527
1584600828.220,37.598,27.344,28.320,93.262,58.105
1584600828.224,5.371,24.902,25.879,-35.156,83.984
1584600828.227,-7.812,21.484,23.926,-54.688,48.828
1584600828.231,22.949,23.926,29.785,80.566,33.691
1584600828.235,38.086,26.367,30.762,130.859,34.180
1584600828.239,19.531,22.949,26.367,8.301,-7.812
1584600828.243,12.695,20.996,25.391,-69.336,19.531
1584600828.247,32.715,24.902,25.391,37.598,34.180
1584600828.251,49.805,27.344,25.391,130.859,12.207
1584600828.255,37.109,23.438,22.461,49.316,43.945
1584600828.259,14.160,20.996,21.484,-64.941,51.758
1584600828.263,28.809,24.414,26.855,-8.301,30.762
1584600828.267,60.059,31.250,30.273,123.535,12.695
1584600828.270,50.293,26.855,28.809,92.285,25.391
1584600828.274,26.367,20.020,24.902,-44.922,55.176
1584600828.278,34.180,23.926,27.832,-32.715,53.223
1584600828.282,57.617,28.809,32.227,108.887,42.969
1584600828.286,48.340,22.949,31.738,121.094,20.020
1584600828.290,11.719,15.625,28.809,-14.160,38.574
1584600828.294,10.254,20.508,28.320,-54.199,28.320
1584600828.298,45.410,28.809,32.227,72.266,-24.902
1584600828.302,48.340,25.391,29.785,133.789,29.785
1584600828.306,15.137,17.578,25.879,14.648,51.270
1584600828.310,2.441,19.531,23.438,-73.730,69.336
1584600828.313,31.738,26.855,26.367,37.109,72.754
1584600828.317,55.176,27.344,29.785,137.207,49.805
1584600828.321,34.668,21.973,28.320,58.594,28.320
1584600828.325,4.883,20.508,25.879,-58.105,37.598
1584600828.329,17.578,23.926,25.879,-9.277,3.418
1584600828.333,47.363,26.855,30.273,117.676,-3.418
1584600828.337,41.992,25.391,27.832,87.402,101.074
1584600828.341,12.695,24.414,22.461,-55.176,81.543
1584600828.345,16.602,23.926,26.367,-50.781,39.551
1584600828.349,44.434,24.902,27.344,92.773,12.695
1584600828.352,42.969,24.902,22.949,106.934,38.086
1584600828.356,17.578,21.484,19.531,-31.250,57.129
1584600828.360,10.742,24.414,19.531,-74.707,64.453
1584600828.364,35.156,28.809,20.996,56.641,9.277
1584600828.368,41.992,29.297,22.461,125.977,-45.410
1584600828.372,15.137,26.367,20.996,17.090,17.578
1584600828.376,0.000,24.414,19.531,-80.566,1.465
1584600828.380,24.414,28.809,20.020,18.066,-42.969
1584600828.384,44.922,30.273,19.531,130.859,25.879
1584600828.388,28.320,25.391,19.531,51.758,23.926
1584600828.392,4.883,20.996,16.113,-78.125,-1.953
1584600828.395,19.531,22.461,14.160,-28.320,37.109
1584600828.399,46.875,26.367,20.020,111.816,42.480
1584600828.403,37.109,24.902,20.508,89.355,4.395
1584600828.407,9.277,22.949,17.090,-56.152,18.555
1584600828.411,12.695,27.344,18.555,-59.570,45.410
1584600828.415,45.410,33.691,23.438,88.379,7.324
1584600828.419,51.758,30.273,25.391,119.629,30.273
1584600828.423,21.973,21.484,24.414,-20.020,92.773
1584600828.427,14.160,21.973,25.391,-77.637,62.988
1584600828.431,45.898,30.273,30.762,61.035,-34.180
1584600828.435,57.129,29.785,31.250,145.020,-19.531
1584600828.438,30.762,22.461,24.902,28.809,28.809
1584600828.442,12.695,21.484,27.344,-73.730,38.574
1584600828.446,37.109,25.391,33.203,25.391,12.695
1584600828.450,58.105,31.250,31.738,143.066,-22.461
1584600828.454,33.691,25.879,25.879,64.941,26.855
1584600828.458,4.395,20.508,26.855,-74.707,32.715
1584600828.462,18.555,28.320,33.203,-23.926,-9.277
1584600828.466,53.223,35.156,35.156,126.953,35.156
1584600828.470,52.246,29.785,35.645,106.445,62.500
1584600828.474,21.484,24.414,32.227,-47.852,9.766
1584600828.477,21.973,28.809,33.203,-56.641,60.059
1584600828.481,57.617,33.691,37.109,96.191,36.133
1584600828.485,52.246,30.273,37.109,134.766,5.371
1584600828.489,13.184,23.926,33.203,-10.254,40.039
1584600828.493,3.906,20.020,32.227,-83.008,22.461
1584600828.497,31.250,25.879,39.551,56.641,34.180
1584600828.501,44.434,29.297,38.574,148.438,49.805
1584600828.505,18.555,24.414,34.180,31.250,34.180
1584600828.509,-4.883,22.949,32.227,-82.520,26.855
1584600828.513,15.625,25.391,33.203,8.301,34.180
1584600828.517,40.527,29.785,33.691,142.090,47.852
1584600828.520,21.973,26.367,29.785,76.660,28.809
1584600828.524,-11.719,18.555,26.367,-73.730,21.973
1584600828.528,0.488,20.508,27.832,-33.203,9.277
1584600828.532,36.133,24.414,29.785,114.258,-6.348
1584600828.536,32.715,20.996,26.855,95.215,13.184
1584600828.540,0.000,18.555,21.484,-64.941,-22.461
1584600828.544,0.488,21.973,21.973,-86.914,20.020
1584600828.548,36.133,28.809,24.902,62.012,72.754
1584600828.552,41.992,33.691,24.414,110.352,38.574
1584600828.556,8.301,27.832,21.484,-20.020,24.902
1584600828.560,-3.418,25.391,20.508,-93.262,43.457
1584600828.563,30.273,32.227,27.344,38.574,50.781
1584600828.567,44.922,33.203,28.320,138.184,17.090
1584600828.571,17.578,25.391,21.484,31.250,45.898
1584600828.575,-4.883,20.996,23.926,-91.309,50.293
1584600828.579,16.113,24.902,28.809,-1.953,20.508
1584600828.583,45.898,30.273,28.809,139.648,6.836
1584600828.587,31.250,28.320,24.414,85.938,27.344
1584600828.591,-2.441,24.414,21.973,-67.383,45.898
1584600828.595,9.766,30.762,22.949,-39.062,21.484
1584600828.599,46.875,38.574,23.926,123.047,9.766
1584600828.602,41.992,33.203,25.391,122.559,31.738
1584600828.606,5.859,26.855,23.926,-38.574,32.715
1584600828.610,3.418,27.832,26.367,-77.148,36.621
1584600828.614,43.945,33.691,30.762,77.148,38.574
1584600828.618,56.641,35.645,29.297,137.695,-14.160
1584600828.622,25.391,29.297,28.320,-1.465,5.859
1584600828.626,11.230,28.809,28.320,-88.867,23.438
1584600828.630,46.387,33.691,30.273,44.922,29.785
1584600828.634,69.336,35.156,33.691,154.785,-2.930
1584600828.638,42.969,30.273,27.344,44.434,-26.367
1584600828.642,13.184,27.344,22.949,-89.844,-10.254
1584600828.645,32.227,32.715,27.832,-6.348,35.645
1584600828.649,62.988,34.180,32.227,141.602,27.344
1584600828.653,43.457,27.344,33.691,92.285,-1.465
1584600828.657,8.789,22.949,29.785,-65.430,-2.930
1584600828.661,17.578,27.344,29.785,-53.223,-3.418
1584600828.665,51.758,29.785,34.668,113.281,-7.324
1584600828.669,47.852,24.414,34.180,126.953,49.805
1584600828.673,12.695,18.555,28.809,-34.668,113.281
1584600828.677,7.324,19.043,28.320,-74.707,82.520
1584600828.681,40.527,27.832,28.320,70.312,51.270
1584600828.685,48.340,31.250,27.344,125.488,34.668
1584600828.688,13.672,23.926,25.391,-6.348,0.000
1584600828.692,-3.418,22.949,25.879,-91.797,3.906
1584600828.696,30.273,31.250,29.297,28.320,29.297
1584600828.700,56.152,32.227,28.320,139.160,17.578
1584600828.704,30.273,25.391,23.926,46.875,-4.883
1584600828.708,-1.465,22.461,19.531,-98.633,42.480
1584600828.712,17.090,26.367,22.949,-36.621,54.688
1584600828.716,50.781,31.738,25.391,114.746,40.527
1584600828.720,37.598,28.320,24.414,77.637,54.199
1584600828.724,-8.301,22.461,22.949,-80.078,86.914
1584600828.727,-7.812,29.297,24.414,-73.730,36.621
1584600828.731,38.086,35.156,24.902,87.402,3.418
1584600828.735,52.734,31.250,21.484,128.906,24.902
1584600828.739,16.113,23.926,28.320,-20.508,5.371
1584600828.743,-17.578,19.531,32.715,-105.957,4.883
1584600828.747,5.371,27.832,33.691,31.738,56.152
1584600828.751,29.297,32.227,38.086,121.094,95.703
1584600828.755,-5.371,23.926,40.527,-6.836,33.203
1584600828.759,-34.180,20.508,40.039,-118.164,-12.695
1584600828.763,-5.859,17.578,46.387,-9.277,-21.484
1584600828.767,14.160,20.020,51.758,105.469,2.930
1584600828.770,-10.254,14.160,52.734,26.855,36.133
1584600828.774,-46.875,8.789,60.547,-115.234,21.973
1584600828.778,-35.645,11.719,64.941,-74.219,-5.371
1584600828.782,-6.348,5.371,66.406,81.543,35.645
1584600828.786,-24.902,-2.441,65.918,58.105,28.809
1584600828.790,-78.125,-11.230,65.918,-115.723,56.641
1584600828.794,-83.008,-9.766,68.359,-127.441,79.102
1584600828.798,-45.898,-9.277,71.777,40.039,15.625
1584600828.802,-43.457,-12.695,76.172,79.590,36.621
1584600828.806,-90.820,-20.020,74.219,-73.242,47.363
1584600828.810,-107.422,-23.438,76.172,-147.461,22.949
1584600828.813,-56.152,-19.043,83.496,-8.301,16.602
1584600828.817,-30.273,-20.020,85.938,81.543,12.695
1584600828.821,-64.941,-25.879,83.984,-33.691,69.824
1584600828.825,-96.680,-27.832,80.078,-149.414,124.512
1584600828.829,-61.035,-24.902,82.031,-56.152,25.879
1584600828.833,-16.113,-19.043,85.938,81.543,17.578
1584600828.837,-41.016,-21.973,82.031,20.020,28.320
1584600828.841,-78.613,-26.367,73.730,-122.559,19.043
1584600828.845,-42.969,-20.508,76.660,-60.547,59.570
1584600828.849,6.836,-14.160,77.148,104.004,71.777
1584600828.852,5.859,-13.184,68.359,89.355,89.355
1584600828.856,-22.949,-15.625,62.988,-56.152,47.852
1584600828.860,-15.625,-11.230,60.547,-73.730,50.781
1584600828.864,38.574,-1.953,61.035,82.031,30.273
1584600828.868,49.805,0.488,57.129,137.695,49.316
1584600828.872,1.953,-0.977,48.828,4.883,66.406
1584600828.876,-8.789,-0.488,45.410,-69.824,29.297
1584600828.880,41.504,4.883,47.852,59.570,59.570
1584600828.884,61.035,10.254,47.852,165.039,31.250
1584600828.888,30.762,5.859,43.457,77.148,2.441
1584600828.892,6.348,6.836,36.621,-42.480,-14.648
1584600828.895,40.527,16.113,36.133,37.598,-12.695
1584600828.899,90.820,21.484,36.133,176.758,-0.977
1584600828.903,68.359,19.043,32.227,125.977,8.301
1584600828.907,22.949,14.648,33.203,-10.254,37.109
1584600828.911,46.875,19.043,33.203,17.090,-8.789
1584600828.915,93.262,24.902,31.738,166.016,-2.930
1584600828.919,81.543,21.973,30.762,166.016,30.273
1584600828.923,27.344,15.137,23.926,16.113,27.344
1584600828.927,36.621,18.555,24.902,-13.184,55.664
1584600828.931,96.680,27.344,29.297,125.977,79.102
1584600828.935,100.098,31.250,25.879,178.711,62.500
1584600828.938,51.758,29.785,20.020,63.965,21.484
1584600828.942,33.691,25.879,16.602,-16.602,17.578
1584600828.946,85.449,29.297,19.531,87.891,10.742
1584600828.950,117.188,33.203,20.996,183.105,20.020
1584600828.954,76.172,29.785,18.555,89.355,31.250
1584600828.958,31.250,23.438,15.625,-33.203,-4.395
1584600828.962,63.477,29.785,17.090,25.879,-0.488
1584600828.966,112.305,37.109,17.578,152.344,-43.945
1584600828.970,86.914,35.645,15.137,119.629,-50.781
1584600828.974,26.855,32.715,10.742,-12.207,1.465
1584600828.977,42.969,35.156,16.113,-1.953,42.480
1584600828.981,104.004,40.039,22.461,137.207,-4.883
1584600828.985,98.145,38.574,16.602,153.809,-26.367
1584600828.989,39.062,35.156,11.230,22.461,31.738
1584600828.993,29.297,34.180,11.719,-31.250,31.250
1584600828.997,80.566,41.992,15.625,87.402,6.836
1584600829.001,89.844,38.086,18.066,155.762,50.781
1584600829.005,33.691,27.832,12.695,49.316,50.293
1584600829.009,4.395,30.273,6.836,-40.527,39.551
1584600829.013,52.734,34.668,11.719,42.480,-20.020
1584600829.017,96.680,39.062,13.672,141.602,-32.715
1584600829.020,61.523,35.645,10.742,89.355,41.992
1584600829.024,6.836,30.273,6.836,-23.438,43.945
1584600829.028,40.527,35.645,7.324,9.766,-3.906
1584600829.032,96.680,39.551,10.742,131.348,-23.926
1584600829.036,72.754,34.180,7.324,102.051,5.371
1584600829.040,11.719,27.832,3.906,-30.762,28.320
1584600829.044,19.043,31.738,7.812,-42.480,33.203
1584600829.048,76.172,35.156,12.695,76.660,-27.832
1584600829.052,73.730,32.715,14.160,111.816,16.113
1584600829.056,11.719,29.297,8.789,-6.348,50.293
1584600829.060,-1.465,30.273,8.789,-72.266,-23.438
1584600829.063,62.988,37.109,13.672,42.480,-15.625
1584600829.067,82.520,38.574,13.184,125.977,57.617
1584600829.071,23.926,32.715,8.301,26.367,17.578
1584600829.075,-9.277,33.691,2.441,-64.941,-39.062
1584600829.079,44.434,38.574,8.301,12.207,-10.742
1584600829.083,80.566,38.574,16.602,120.117,-9.277
1584600829.087,43.945,33.203,13.672,74.707,17.090
1584600829.091,-5.371,27.832,8.789,-46.875,54.688
1584600829.095,21.484,32.715,13.184,-20.020,49.805
1584600829.099,83.008,36.621,15.137,106.934,42.969
1584600829.102,62.012,33.203,11.719,94.727,74.707
1584600829.106,0.000,27.832,10.254,-36.133,42.480
1584600829.110,9.277,30.762,12.207,-46.875,2.930
1584600829.114,78.613,39.551,16.113,77.148,39.062
1584600829.118,85.449,40.527,17.578,112.793,45.410
1584600829.122,18.066,38.574,13.184,3.418,-24.902
1584600829.126,-2.441,35.156,14.160,-57.129,0.977
1584600829.130,58.594,38.086,19.531,43.945,65.918
1584600829.134,89.355,42.480,17.578,125.000,50.781
1584600829.138,35.156,35.156,15.137,46.387,79.102
1584600829.142,-8.301,31.738,15.137,-52.734,73.730
1584600829.145,40.527,35.645,17.578,-3.906,55.664
1584600829.149,90.332,39.551,16.113,93.262,5.859
1584600829.153,54.199,37.109,16.113,67.383,18.066
1584600829.157,-7.812,31.250,17.090,-37.109,46.875
1584600829.161,33.691,35.645,18.066,-20.020,42.480
1584600829.165,112.793,42.480,18.555,113.770,49.316
1584600829.169,85.449,38.574,17.578,119.629,25.391
1584600829.173,-12.695,34.180,16.113,-26.855,-13.672
1584600829.177,-15.137,37.598,17.090,-73.242,-8.789
1584600829.181,70.312,39.551,23.438,53.223,18.555
1584600829.185,80.566,37.598,21.973,111.328,37.109
1584600829.188,24.902,35.645,16.113,17.090,35.156
1584600829.192,8.789,34.180,14.648,-48.340,33.691
1584600829.196,61.035,37.109,15.625,26.855,64.453
1584600829.200,90.820,40.527,18.555,104.004,83.496
1584600829.204,45.410,35.156,17.578,50.781,51.758
1584600829.208,-1.465,29.297,14.648,-50.293,20.508
1584600829.212,35.645,35.645,15.625,-15.625,14.160
1584600829.216,84.961,39.551,19.531,95.703,27.344
1584600829.220,51.758,35.645,21.973,70.801,40.039
1584600829.224,-8.301,31.738,14.648,-40.527,1.465
1584600829.227,15.625,36.133,14.160,-32.715,-19.531
1584600829.231,75.684,38.574,19.531,78.125,5.859
1584600829.235,69.336,32.715,19.531,97.168,37.598
1584600829.239,4.883,27.344,17.578,-9.766,33.203
1584600829.243,-2.930,32.227,19.043,-54.199,6.836
1584600829.247,65.918,41.016,22.461,46.387,11.719
1584600829.251,83.984,40.039,22.949,100.098,-13.672
1584600829.255,21.973,34.180,20.020,11.230,-26.855
1584600829.259,-12.695,33.691,19.043,-63.477,23.926
1584600829.263,45.410,36.621,19.531,11.230,46.387
1584600829.267,85.449,36.621,19.531,103.516,26.367
1584600829.270,35.156,29.297,18.066,50.781,24.414
1584600829.274,-13.672,26.855,17.090,-48.340,28.809
1584600829.278,32.715,34.180,19.043,-10.742,4.395
1584600829.282,96.191,37.598,22.461,101.562,4.395
1584600829.286,64.453,35.156,20.020,91.309,0.488
1584600829.290,-6.836,30.762,15.625,-19.531,69.336
1584600829.294,14.648,32.227,17.090,-28.320,65.430
1584600829.298,88.379,37.109,22.461,80.566,37.598
1584600829.302,78.613,35.645,24.902,111.816,12.695
1584600829.306,11.719,34.180,18.555,16.602,-35.156
1584600829.310,4.883,33.203,17.090,-35.645,53.711
1584600829.313,70.801,36.621,20.020,57.617,47.363
1584600829.317,100.586,41.016,16.113,116.211,16.113
1584600829.321,40.039,35.156,12.695,36.133,34.668
1584600829.325,0.488,31.738,11.230,-42.969,57.617
1584600829.329,53.223,36.133,11.230,14.648,67.871
1584600829.333,97.656,40.039,13.672,112.793,41.504
1584600829.337,50.781,36.133,13.184,62.988,24.414
1584600829.341,-8.789,29.297,11.230,-45.410,25.879
1584600829.345,20.508,30.273,14.648,-22.949,6.836
1584600829.349,79.590,34.180,18.555,87.402,41.504
1584600829.352,61.035,29.785,18.066,87.891,68.359
1584600829.356,-3.418,24.414,13.672,-22.461,28.809
1584600829.360,7.812,29.297,11.719,-40.527,21.484
1584600829.364,71.777,36.133,14.648,64.453,54.199
1584600829.368,63.477,31.738,14.160,95.215,20.020
1584600829.372,3.906,26.855,9.277,1.465,2.930
1584600829.376,-2.930,27.344,10.254,-55.176,-9.277
1584600829.380,53.223,29.785,15.137,24.414,-15.625
1584600829.384,79.590,34.668,16.113,99.609,35.156
1584600829.388,23.438,30.273,16.602,25.879,22.949
1584600829.392,-18.066,29.297,16.602,-56.641,45.410
1584600829.395,27.832,33.691,18.066,2.930,85.449
1584600829.399,68.359,33.203,21.973,100.098,77.637
1584600829.403,26.367,29.297,21.973,63.965,16.113
1584600829.407,-38.086,26.367,22.461,-45.898,5.859
1584600829.411,-2.930,30.762,29.297,-28.809,53.223
1584600829.415,65.918,34.180,34.180,74.707,38.574
1584600829.419,52.246,34.668,33.691,82.031,3.418
1584600829.423,-8.301,32.715,32.227,-18.555,-10.254
1584600829.427,-4.395,32.715,29.785,-47.363,-3.418
1584600829.431,65.918,37.598,28.809,50.293,4.883
1584600829.435,75.684,37.109,29.785,87.402,55.664
1584600829.438,8.789,35.156,28.809,3.418,20.996
1584600829.442,-9.277,36.133,30.762,-53.711,-24.414
1584600829.446,49.316,37.598,31.250,19.531,6.836
1584600829.450,82.520,39.062,31.250,98.633,-0.977
1584600829.454,36.133,33.691,34.180,35.156,16.602
1584600829.458,-25.391,27.344,29.785,-57.617,35.156
1584600829.462,20.508,31.738,29.297,-10.742,41.992
1584600829.466,87.402,38.574,33.203,89.355,46.387
1584600829.470,52.734,35.156,33.691,69.824,27.344
1584600829.474,-7.812,28.320,27.344,-29.785,43.945
1584600829.477,20.508,30.762,31.738,-28.809,84.473
1584600829.481,84.961,39.062,34.668,70.312,62.500
1584600829.485,72.754,40.039,29.785,86.426,0.488
1584600829.489,4.395,32.715,30.762,-11.230,41.016
1584600829.493,-1.953,29.785,31.250,-51.270,84.961
1584600829.497,75.195,35.156,32.715,57.617,30.273
1584600829.501,96.191,35.156,33.203,132.324,-8.789
1584600829.505,32.715,28.809,33.691,42.969,8.789
1584600829.509,-19.531,23.438,33.691,-53.711,7.324
1584600829.513,27.344,30.273,32.715,4.395,52.246
1584600829.517,62.988,30.762,33.203,94.727,54.688
1584600829.520,17.578,21.973,31.738,56.152,41.016
1584600829.524,-17.578,20.996,33.691,-27.832,65.430
1584600829.528,16.602,26.855,39.551,6.836,39.062
1584600829.532,74.707,34.180,40.527,109.863,-5.371
1584600829.536,48.828,30.762,39.062,89.844,12.207
1584600829.540,-15.625,26.855,33.691,-13.184,33.203
1584600829.544,11.719,31.738,32.227,-14.648,32.715
1584600829.548,76.172,34.668,33.691,84.961,30.762
1584600829.552,70.801,34.180,31.738,108.887,82.031
1584600829.556,14.160,30.762,28.320,6.836,0.000
1584600829.560,3.906,29.785,32.715,-33.691,-15.137
1584600829.563,64.941,30.762,37.598,51.758,27.832
1584600829.567,88.379,32.227,37.109,112.793,-44.922
1584600829.571,35.156,33.691,35.156,39.062,-10.254
1584600829.575,3.906,31.250,33.203,-43.457,85.449
1584600829.579,55.176,32.715,33.203,19.043,31.738
1584600829.583,91.797,37.598,33.691,103.516,-23.438
1584600829.587,49.805,37.109,34.668,58.105,62.012
1584600829.591,0.977,31.250,32.227,-37.598,117.188
1584600829.595,36.621,35.156,29.297,-18.066,66.895
1584600829.599,91.797,38.574,31.738,77.148,-6.348
1584600829.602,77.148,36.133,33.691,73.730,0.000
1584600829.606,17.090,32.227,28.320,-25.879,-0.488
1584600829.610,26.367,33.203,30.273,-45.898,14.648
1584600829.614,89.844,37.598,34.668,52.246,26.855
1584600829.618,87.891,37.598,36.133,101.562,44.434
1584600829.622,17.578,32.227,35.645,25.391,36.621
1584600829.626,-9.766,29.785,33.203,-34.180,41.992
1584600829.630,45.898,33.203,40.527,41.992,98.633
1584600829.634,53.711,30.273,44.922,120.605,61.523
1584600829.638,-4.395,23.926,37.109,50.781,-18.555
1584600829.642,-33.203,22.461,33.691,-41.992,24.414
1584600829.645,17.578,24.902,41.016,16.113,39.062
1584600829.649,71.289,29.785,44.434,117.188,16.602
1584600829.653,40.039,23.438,42.480,71.289,33.691
1584600829.657,-12.695,18.066,39.062,-40.039,-5.859
1584600829.661,20.020,24.902,41.992,-19.043,-49.805
1584600829.665,83.984,28.809,48.340,96.191,1.465
1584600829.669,70.801,28.320,45.410,98.633,-0.977
1584600829.673,11.230,24.414,41.992,-14.648,-20.996
1584600829.677,10.254,25.879,44.922,-47.852,23.438
1584600829.681,76.172,32.715,47.852,51.270,32.227
1584600829.685,108.887,35.156,44.434,99.609,55.176
1584600829.688,53.223,30.273,41.504,13.184,52.246
1584600829.692,19.043,26.855,41.504,-55.664,42.480
1584600829.696,90.820,34.180,43.457,22.461,73.730
1584600829.700,120.117,38.086,45.898,104.492,72.266
1584600829.704,37.598,30.273,44.434,46.875,16.602
1584600829.708,-20.508,25.391,42.969,-40.527,-10.254
1584600829.712,14.648,30.273,47.363,-3.418,-19.043
1584600829.716,41.992,29.297,54.199,104.004,2.441
1584600829.720,20.996,16.602,62.500,101.562,66.895
1584600829.724,-10.254,22.949,61.035,1.953,31.738
1584600829.727,-17.578,37.109,49.805,-22.949,-14.160
1584600829.731,9.766,41.992,45.410,66.895,-7.324
1584600829.735,11.230,44.434,41.016,86.426,37.109
1584600829.739,-40.039,41.504,38.086,-25.391,74.707
1584600829.743,-43.457,48.340,34.668,-81.055,24.902
1584600829.747,3.418,50.293,32.227,2.930,-48.340
1584600829.751,13.184,49.805,34.668,60.059,10.742
1584600829.755,-37.109,47.852,28.320,-31.250,88.867
1584600829.759,-65.430,46.387,16.602,-132.812,54.199
1584600829.763,-16.602,58.105,20.020,-77.148,39.062
1584600829.767,7.812,71.289,20.508,14.648,33.691
1584600829.770,-27.832,69.824,15.625,-48.340,20.996
1584600829.774,-81.055,65.918,9.277,-164.551,51.758
1584600829.778,-59.570,75.195,7.324,-130.859,60.059
1584600829.782,-7.812,83.984,9.277,-28.809,43.945
1584600829.786,-28.320,81.055,6.348,-55.664,41.016
1584600829.790,-75.195,78.125,-1.465,-172.363,-13.672
1584600829.794,-77.148,80.566,-0.977,-170.898,5.859
1584600829.798,-43.945,82.520,8.789,-39.551,43.457
1584600829.802,-48.828,77.148,9.766,-13.672,40.527
1584600829.806,-101.074,71.289,0.977,-123.535,56.641
1584600829.810,-100.098,69.824,0.000,-159.180,43.945
1584600829.813,-42.969,70.801,9.277,-40.527,24.902
1584600829.817,-13.184,68.848,13.184,41.016,51.270
1584600829.821,-41.504,62.012,10.742,-48.340,27.344
1584600829.825,-56.641,60.059,8.789,-124.512,0.977
1584600829.829,-3.906,66.406,13.672,-37.109,55.176
1584600829.833,36.621,65.430,18.555,76.172,58.105
1584600829.837,10.742,58.594,18.555,19.531,25.879
1584600829.841,-17.090,56.641,11.719,-100.098,-0.488
1584600829.845,20.020,58.105,15.625,-43.457,31.250
1584600829.849,78.125,56.641,22.461,84.961,56.641
1584600829.852,78.613,52.246,20.020,71.289,-25.391
1584600829.856,40.039,46.387,18.555,-51.758,-66.406
1584600829.860,57.129,43.457,21.484,-67.871,-14.648
1584600829.864,111.328,45.898,23.926,74.707,20.020
1584600829.868,113.281,45.410,23.926,128.418,7.812
1584600829.872,66.895,42.969,18.555,9.277,-12.695
1584600829.876,55.176,39.551,20.996,-62.012,-14.648
1584600829.880,94.727,39.551,27.832,51.758,60.547
1584600829.884,97.168,38.086,25.879,140.625,50.293
1584600829.888,44.434,32.715,22.949,47.852,6.348
1584600829.892,14.648,32.227,21.973,-43.945,54.688
1584600829.895,53.223,34.180,27.344,42.969,98.633
1584600829.899,70.312,31.250,36.133,165.527,55.176
1584600829.903,23.438,22.949,38.086,103.516,24.414
1584600829.907,-6.348,15.625,34.180,-26.855,14.648
1584600829.911,29.785,20.020,30.762,6.348,-23.926
1584600829.915,77.148,26.855,33.203,131.836,-18.555
1584600829.919,67.871,21.484,32.227,127.930,36.621
1584600829.923,29.785,11.719,27.344,-2.930,20.508
1584600829.927,40.527,13.672,29.785,-33.691,23.926
1584600829.931,94.238,20.508,34.668,101.074,35.156
1584600829.935,95.215,19.531,36.621,149.902,23.438
1584600829.938,55.664,12.695,33.203,11.719,63.477
1584600829.942,37.109,9.766,32.227,-66.895,30.762
1584600829.946,66.406,11.719,37.109,50.781,-11.230
1584600829.950,83.008,13.672,40.039,147.949,-18.555
1584600829.954,36.133,7.812,36.621,53.223,0.488
1584600829.958,9.766,8.789,32.715,-67.871,51.270
1584600829.962,52.246,13.672,36.133,11.719,55.176
1584600829.966,100.098,15.625,38.574,151.367,44.434
1584600829.970,74.219,14.160,36.621,104.980,57.129
1584600829.974,17.578,8.789,35.645,-37.598,37.598
1584600829.977,20.020,11.719,37.598,-20.996,48.828
1584600829.981,62.988,18.066,38.574,122.070,63.965
1584600829.985,78.125,19.043,38.574,131.348,96.191
1584600829.989,41.992,13.672,35.156,-13.184,93.262
1584600829.993,30.273,13.672,33.203,-51.270,1.465
1584600829.997,43.945,16.602,37.109,92.285,-42.969
1584600830.001,36.621,11.719,40.527,171.387,0.000
1584600830.005,25.391,9.766,36.621,39.551,10.254
1584600830.009,16.602,10.254,35.645,-59.082,36.621
1584600830.013,31.250,13.184,40.527,61.035,23.438
1584600830.017,46.387,17.578,41.992,173.828,-26.367
1584600830.020,29.785,13.672,39.551,83.984,34.180
1584600830.024,2.930,11.230,33.203,-51.270,96.191
1584600830.028,19.531,13.672,30.273,9.277,56.641
1584600830.032,55.664,16.602,31.250,149.902,-0.488
1584600830.036,49.805,14.648,28.320,109.863,-14.160
1584600830.040,21.484,12.207,25.879,-41.016,-17.578
1584600830.044,32.715,12.695,25.879,-35.156,-9.766
1584600830.048,64.453,17.578,31.250,117.676,34.180
1584600830.052,60.547,19.043,32.715,142.090,3.418
1584600830.056,27.344,13.184,25.879,-6.836,-24.414
1584600830.060,15.137,9.766,27.344,-60.547,-8.789
1584600830.063,44.434,12.695,28.320,79.102,0.000
1584600830.067,64.453,13.672,27.344,159.180,20.996
1584600830.071,35.156,10.742,26.855,39.551,21.973
1584600830.075,3.418,8.789,24.902,-71.777,58.594
1584600830.079,28.809,12.695,26.855,37.598,72.266
1584600830.083,56.641,15.625,26.367,163.086,-4.883
1584600830.087,41.992,13.184,22.949,74.219,8.301
1584600830.091,13.184,10.742,20.996,-66.406,117.676
1584600830.095,28.320,14.160,20.020,-16.113,89.355
1584600830.099,56.152,20.996,20.020,136.230,66.895
1584600830.102,32.227,16.113,18.555,117.188,101.074
1584600830.106,2.441,12.695,18.066,-41.016,53.711
1584600830.110,21.484,16.602,20.020,-49.805,0.488
1584600830.114,55.664,20.020,24.414,106.445,-14.160
1584600830.118,34.668,17.090,25.391,144.531,14.160
1584600830.122,-18.066,9.766,23.926,1.953,-2.930
1584600830.126,-26.855,8.301,25.391,-71.289,25.879
1584600830.130,13.672,12.207,26.855,62.500,70.312
1584600830.134,34.668,12.207,25.879,161.133,64.453
1584600830.138,17.090,11.719,22.461,40.039,61.035
1584600830.142,3.906,16.602,21.973,-78.613,33.691
1584600830.145,25.879,20.996,24.414,18.555,45.898
1584600830.149,44.922,19.531,24.902,148.926,85.449
1584600830.153,26.855,13.672,26.367,81.543,74.219
1584600830.157,8.789,13.672,27.832,-58.594,47.363
1584600830.161,22.949,20.508,29.785,-21.484,22.461
1584600830.165,51.270,25.879,32.715,122.559,14.648
1584600830.169,55.176,24.902,31.250,105.469,-19.043
1584600830.173,41.016,19.531,25.879,-46.387,-45.898
1584600830.177,46.875,20.996,25.391,-59.570,14.648
1584600830.181,64.941,26.367,26.367,88.379,25.879
1584600830.185,62.500,23.438,30.273,135.254,7.324
1584600830.188,45.898,17.578,30.762,0.977,26.367
1584600830.192,24.902,15.625,29.297,-73.730,29.297
1584600830.196,25.879,20.020,33.203,61.035,61.035
1584600830.200,34.180,24.414,35.156,163.574,62.988
1584600830.204,0.488,17.578,31.250,60.059,20.508
1584600830.208,-36.133,18.066,25.391,-65.918,49.316
1584600830.212,-17.578,21.484,26.855,14.648,39.551
1584600830.216,28.809,25.391,25.391,148.438,-5.859
1584600830.220,36.621,24.902,21.973,89.355,53.711
1584600830.224,7.324,16.602,21.973,-56.641,63.477
1584600830.227,15.137,18.066,25.391,-32.715,19.531
1584600830.231,41.504,23.926,29.785,122.559,44.922
1584600830.235,34.180,20.996,31.250,126.953,57.129
1584600830.239,14.160,19.043,27.832,-28.809,-16.113
1584600830.243,16.113,22.949,25.391,-65.918,-20.508
1584600830.247,46.875,26.855,26.855,80.566,30.273
1584600830.251,54.199,26.855,20.996,141.113,8.301
1584600830.255,14.648,20.508,14.160,2.441,28.809
1584600830.259,1.465,18.066,11.230,-90.820,6.348
1584600830.263,26.855,21.973,11.230,23.926,-8.301
1584600830.267,49.805,25.879,11.230,137.207,26.367
1584600830.270,45.410,23.926,5.371,45.898,67.871
1584600830.274,26.855,20.508,2.441,-89.355,71.777
1584600830.278,35.156,22.949,3.906,-17.578,62.988
1584600830.282,58.594,25.391,4.395,133.789,65.430
1584600830.286,56.152,15.625,7.324,111.328,-6.348
1584600830.290,16.602,6.836,9.766,-14.648,1.465
1584600830.294,-8.789,18.066,2.930,-31.250,43.945
1584600830.298,4.395,28.320,-3.906,83.008,31.250
1584600830.302,21.973,27.832,-4.395,114.746,-15.625
1584600830.306,5.371,27.832,-4.883,-23.926,-10.254
1584600830.310,-0.977,28.809,-6.836,-73.730,60.547
1584600830.313,35.156,32.227,-5.371,80.566,41.504
1584600830.317,52.734,34.668,0.977,158.203,34.668
1584600830.321,41.992,31.738,1.953,28.809,85.449
1584600830.325,41.504,30.273,-2.930,-78.125,70.312
1584600830.329,68.848,34.668,-0.488,28.320,33.691
1584600830.333,82.520,36.133,0.488,148.926,-10.254
1584600830.337,56.641,35.156,-3.418,67.383,-17.578
1584600830.341,23.438,29.785,-2.930,-64.453,-13.672
1584600830.345,28.809,28.320,0.000,-5.859,-19.043
1584600830.349,58.105,35.156,0.488,138.184,19.043
1584600830.352,63.477,34.180,-3.418,111.328,-12.207
1584600830.356,34.668,27.344,-2.441,-39.062,-13.184
1584600830.360,24.902,25.879,-0.977,-49.316,24.902
1584600830.364,46.875,31.250,3.418,104.980,17.090
1584600830.368,40.527,32.715,4.395,137.207,5.371
1584600830.372,6.836,23.438,3.418,-6.836,7.324
1584600830.376,-2.441,22.461,4.395,-72.266,42.969
1584600830.380,36.621,29.785,5.371,58.594,56.641
1584600830.384,59.570,31.250,5.371,145.508,28.320
1584600830.388,34.180,28.809,1.953,29.297,23.926
1584600830.392,14.160,23.438,5.371,-70.312,72.754
1584600830.395,38.086,26.367,6.836,22.461,28.320
1584600830.399,49.316,30.273,4.395,140.625,30.273
1584600830.403,29.785,24.414,3.906,71.777,38.086
1584600830.407,10.742,20.508,7.812,-62.500,-28.809
1584600830.411,26.855,23.926,10.254,-20.508,-5.859
1584600830.415,60.059,29.785,8.301,112.793,59.570
1584600830.419,51.270,25.391,8.301,94.238,19.043
1584600830.423,30.762,19.531,9.766,-45.410,29.297
1584600830.427,27.832,25.391,11.230,-57.129,88.379
1584600830.431,28.320,30.273,17.578,89.844,50.293
1584600830.435,17.090,26.367,18.555,133.301,-15.137
1584600830.438,3.418,22.461,14.648,3.906,-5.859
1584600830.442,2.930,22.949,15.625,-58.594,53.223
1584600830.446,33.691,25.391,19.531,54.199,40.039
1584600830.450,57.617,24.902,20.020,130.859,26.367
1584600830.454,34.180,22.949,16.113,37.109,35.645
1584600830.458,18.555,21.973,14.160,-62.012,19.043
1584600830.462,27.344,26.367,16.602,5.371,8.789
1584600830.466,35.645,28.320,17.578,110.352,-15.625
1584600830.470,24.902,23.926,15.137,62.500,0.977
1584600830.474,4.883,22.949,15.625,-54.199,-21.973
1584600830.477,16.602,27.344,17.578,-23.438,-33.691
1584600830.481,39.551,31.250,20.020,99.121,7.812
1584600830.485,28.809,29.785,20.508,92.285,41.992
1584600830.489,8.789,26.367,19.531,-14.160,72.266
1584600830.493,11.230,24.902,20.508,-37.598,88.867
1584600830.497,35.156,30.762,20.996,71.777,25.879
1584600830.501,52.246,31.250,19.531,114.258,-31.250
1584600830.505,41.016,24.414,16.602,14.648,20.020
1584600830.509,31.250,25.879,16.602,-53.711,-0.977
1584600830.513,24.902,26.855,21.484,32.227,29.297
1584600830.517,28.320,24.902,24.414,121.582,60.547
1584600830.520,14.648,23.438,21.484,45.898,20.996
1584600830.524,-2.441,25.391,20.020,-44.434,-10.254
1584600830.528,13.672,29.297,22.949,4.395,-5.859
1584600830.532,40.527,32.227,24.902,109.863,22.949
1584600830.536,35.156,29.785,22.949,87.402,8.301
1584600830.540,16.602,26.367,18.066,-26.855,-2.441
1584600830.544,25.391,29.297,17.090,-28.320,42.969
1584600830.548,46.387,29.785,20.508,87.402,88.867
1584600830.552,41.504,26.855,20.996,108.398,48.828
1584600830.556,16.113,21.484,21.973,-4.395,-17.578
1584600830.560,16.602,22.949,23.926,-48.340,4.395
1584600830.563,41.016,27.832,27.832,54.199,66.895
1584600830.567,43.457,29.297,23.438,106.445,59.570
1584600830.571,19.531,24.902,19.043,18.555,35.645
1584600830.575,16.602,19.531,21.973,-55.176,57.617
1584600830.579,34.668,23.438,26.367,18.555,49.316
1584600830.583,52.734,29.785,23.438,111.328,35.645
1584600830.587,37.598,27.344,20.020,55.664,84.961
1584600830.591,9.766,21.973,23.438,-37.109,67.383
1584600830.595,18.066,23.438,22.949,-10.742,37.598
1584600830.599,33.691,27.832,21.484,81.055,41.016
1584600830.602,33.691,25.879,24.414,68.359,46.387
1584600830.606,9.277,24.902,20.508,-33.203,79.590
1584600830.610,1.953,22.949,20.508,-44.434,41.992
1584600830.614,33.691,27.344,24.902,61.523,2.441
1584600830.618,41.992,34.668,22.949,72.266,41.016
1584600830.622,31.738,33.203,16.113,-33.691,21.973
1584600830.626,40.527,30.273,22.461,-41.992,34.668
1584600830.630,40.039,25.879,36.621,45.898,75.684
1584600830.634,20.508,25.879,36.621,82.520,25.391
1584600830.638,-6.836,19.043,35.645,-1.465,-23.438
1584600830.642,-33.691,14.160,38.574,-103.027,-2.441
1584600830.645,-37.109,17.578,46.875,-50.781,36.621
1584600830.649,-43.945,11.230,48.340,43.945,57.617
1584600830.653,-51.758,5.859,43.945,-5.371,60.059
1584600830.657,-69.336,3.418,50.293,-104.492,42.969
1584600830.661,-78.613,2.930,51.758,-98.145,27.344
1584600830.665,-52.246,8.301,56.152,13.184,34.180
1584600830.669,-76.660,2.441,58.594,13.672,40.039
1584600830.673,-108.398,-5.371,53.711,-111.816,-16.113
1584600830.677,-97.168,-4.883,58.594,-141.602,-53.711
1584600830.681,-78.613,-4.883,66.895,-37.598,15.137
1584600830.685,-84.473,-7.812,65.918,-9.766,13.672
1584600830.688,-112.305,-15.137,62.500,-112.305,12.207
1584600830.692,-113.281,-18.066,68.848,-164.551,-18.555
1584600830.696,-84.473,-17.090,76.660,-59.082,-23.926
1584600830.700,-78.125,-15.625,74.219,41.992,54.199
1584600830.704,-103.027,-23.926,70.801,-39.551,3.418
1584600830.708,-107.910,-29.785,68.359,-128.906,-21.484
1584600830.712,-84.473,-25.879,69.336,-56.641,66.406
1584600830.716,-46.387,-23.926,73.242,68.848,29.785
1584600830.720,-47.852,-22.461,68.848,37.109,-22.461
1584600830.724,-74.219,-22.461,63.965,-60.547,9.766
1584600830.727,-55.176,-19.531,69.824,-29.785,36.621
1584600830.731,-17.090,-16.113,72.754,89.355,47.852
1584600830.735,-9.766,-14.160,65.430,102.539,33.203
1584600830.739,-23.926,-16.602,59.082,-5.859,20.996
1584600830.743,-21.973,-18.066,62.988,-20.996,33.691
1584600830.747,9.277,-12.695,65.918,97.656,33.203
1584600830.751,19.043,-8.301,59.082,124.023,59.570
1584600830.755,9.766,-7.324,53.711,31.738,55.176
1584600830.759,13.184,-4.883,55.176,-3.906,5.859
1584600830.763,36.133,2.441,52.246,80.566,-27.344
1584600830.767,62.012,7.812,46.875,142.578,-21.973
1584600830.770,37.109,4.395,45.410,55.664,-39.062
1584600830.774,12.695,0.977,43.945,-13.672,-17.578
1584600830.778,33.203,4.395,42.969,47.363,-14.648
1584600830.782,83.984,11.719,41.016,145.508,-26.367
1584600830.786,67.871,14.160,36.133,110.840,36.621
1584600830.790,15.625,10.254,33.691,3.906,68.848
1584600830.794,35.645,16.113,33.203,11.719,14.648
1584600830.798,79.102,20.020,33.691,125.000,-6.348
1584600830.802,75.195,19.043,32.715,127.930,33.691
1584600830.806,41.504,17.578,28.809,26.367,17.578
1584600830.810,33.691,16.113,23.926,-4.395,17.090
1584600830.813,61.523,23.926,23.926,83.496,49.805
1584600830.817,61.523,25.391,28.320,145.020,35.156
1584600830.821,38.086,24.902,24.902,64.941,16.602
1584600830.825,26.855,30.273,19.043,-28.320,0.000
1584600830.829,49.316,33.691,20.020,39.062,40.527
1584600830.833,82.520,30.273,20.508,139.648,35.645
1584600830.837,59.082,28.320,19.043,83.008,-7.324
1584600830.841,34.180,23.438,17.578,-11.230,43.457
1584600830.845,42.480,24.902,18.555,7.324,33.691
1584600830.849,76.660,37.598,18.066,110.352,42.480
1584600830.852,70.801,37.109,15.137,102.051,79.590
1584600830.856,21.973,28.320,16.113,3.906,71.777
1584600830.860,38.086,33.203,15.625,-0.977,60.547
1584600830.864,77.637,36.133,20.508,86.914,63.477
1584600830.868,77.637,31.738,22.461,109.375,86.426
1584600830.872,38.574,28.320,20.996,27.832,80.566
1584600830.876,27.832,32.715,20.996,-9.277,44.922
1584600830.880,55.664,36.133,22.949,58.105,52.246
1584600830.884,69.336,36.133,24.414,115.723,34.180
1584600830.888,61.523,34.668,21.484,40.527,-39.062
1584600830.892,23.438,31.250,24.902,-32.227,-9.766
1584600830.895,33.691,37.598,26.367,25.879,22.461
1584600830.899,76.172,38.086,25.391,118.652,25.391
1584600830.903,63.965,36.621,29.785,81.055,18.066
1584600830.907,25.391,38.086,26.855,-13.184,12.207
1584600830.911,41.992,42.969,24.902,15.625,-6.836
1584600830.915,90.820,46.387,28.320,110.352,-7.324
1584600830.919,90.332,50.293,27.832,109.375,-2.441
1584600830.923,44.922,46.387,27.832,7.812,-13.672
1584600830.927,46.875,44.922,27.832,-12.695,0.000
1584600830.931,83.984,48.340,30.762,83.496,13.672
1584600830.935,82.520,43.945,33.203,121.582,26.367
1584600830.938,37.598,40.039,27.832,21.973,-20.020
1584600830.942,6.348,35.156,24.902,-38.574,-9.277
1584600830.946,49.316,37.598,28.320,47.852,54.688
1584600830.950,82.031,40.039,33.203,112.305,42.969
1584600830.954,44.434,37.109,29.297,60.059,29.297
1584600830.958,28.320,36.621,24.902,-15.625,26.367
1584600830.962,62.012,39.062,28.320,9.277,4.395
1584600830.966,84.961,41.504,27.832,91.797,20.508
1584600830.970,58.105,40.527,23.926,71.289,75.195
1584600830.974,32.227,35.645,29.785,-6.836,20.508
1584600830.977,46.387,35.156,32.227,-19.531,-15.137
1584600830.981,83.496,38.574,27.832,56.641,24.902
1584600830.985,77.148,32.715,32.227,81.543,33.203
1584600830.989,21.973,24.902,34.668,12.695,42.480
1584600830.993,4.395,27.344,34.180,-24.902,15.137
1584600830.997,44.434,27.344,36.133,60.059,22.461
1584600831.001,69.824,23.926,40.039,141.602,52.246
1584600831.005,40.527,26.855,37.109,87.891,42.480
1584600831.009,-0.488,36.133,29.297,-13.184,15.137
1584600831.013,7.812,43.945,25.391,-8.301,16.113
1584600831.017,22.949,45.410,19.531,58.105,61.523
1584600831.020,10.254,37.109,18.555,39.551,56.152
1584600831.024,-14.160,34.668,16.113,-59.082,11.230
1584600831.028,8.789,37.598,13.672,-49.316,16.602
1584600831.032,47.363,43.457,13.184,44.922,20.508
1584600831.036,31.738,42.480,12.207,36.133,10.742
1584600831.040,7.324,40.527,10.254,-22.461,46.875
1584600831.044,18.066,43.945,11.230,-24.902,49.805
1584600831.048,50.293,44.922,15.625,45.898,-25.879
1584600831.052,48.828,42.969,15.625,76.660,-30.273
1584600831.056,20.508,40.527,11.719,11.719,0.000
1584600831.060,17.090,37.109,13.672,-37.109,52.734
1584600831.063,51.270,36.133,19.531,23.438,73.730
1584600831.067,59.570,38.086,17.578,79.590,41.992
1584600831.071,27.344,34.180,16.113,40.039,62.500
1584600831.075,15.137,33.203,16.113,-33.691,51.270
1584600831.079,46.875,34.180,20.508,0.000,-0.488
1584600831.083,74.219,35.645,21.973,82.031,43.945
1584600831.087,40.527,36.133,16.602,56.152,79.102
1584600831.091,9.766,31.738,12.695,1.953,55.664
1584600831.095,44.922,33.203,15.137,2.441,30.762
1584600831.099,70.312,33.691,20.996,68.359,34.180
1584600831.102,47.363,31.738,20.020,75.195,72.266
1584600831.106,17.578,26.855,17.090,-2.441,19.531
1584600831.110,17.090,26.367,17.578,-25.879,-3.418
1584600831.114,47.363,30.762,22.461,53.223,11.719
1584600831.118,63.477,35.156,20.996,100.098,-10.254
1584600831.122,28.809,31.738,14.160,25.391,20.996
1584600831.126,11.230,22.949,16.113,-29.785,19.043
1584600831.130,55.176,30.273,17.578,29.785,26.855
1584600831.134,59.082,31.738,18.066,83.008,48.828
1584600831.138,12.207,20.508,19.531,42.480,15.625
1584600831.142,1.465,20.996,14.648,-16.113,-13.672
1584600831.145,31.250,26.367,12.695,9.277,20.508
1584600831.149,89.355,30.762,11.230,102.051,79.102
1584600831.153,96.680,30.273,16.113,95.215,107.910
1584600831.157,7.324,20.996,21.484,-9.277,85.938
1584600831.161,-9.277,19.531,17.090,-36.621,50.293
1584600831.165,36.621,20.996,22.461,47.363,26.855
1584600831.169,43.945,14.160,30.762,81.055,22.461
1584600831.173,9.277,7.324,29.785,19.531,49.316
1584600831.177,6.348,9.766,25.879,-16.113,70.801
1584600831.181,45.410,12.695,32.227,52.734,60.059
1584600831.185,39.551,7.812,38.574,85.449,36.621
1584600831.188,-5.371,2.930,38.574,16.113,14.160
1584600831.192,-11.719,4.395,35.156,-22.949,27.832
1584600831.196,30.762,10.254,35.156,37.598,12.695
1584600831.200,44.922,11.719,37.598,93.262,19.043
1584600831.204,15.625,14.648,31.738,52.246,-8.789
1584600831.208,7.812,17.578,27.344,-6.836,-40.527
1584600831.212,39.551,18.066,37.109,7.812,20.508
1584600831.216,57.617,17.090,38.574,83.496,31.738
1584600831.220,32.715,16.602,29.785,80.078,18.066
1584600831.224,4.883,17.090,31.738,9.766,41.016
1584600831.227,10.742,20.020,31.738,2.441,44.922
1584600831.231,45.898,25.879,28.320,66.406,36.621
1584600831.235,50.781,25.879,30.762,86.914,57.617
1584600831.239,13.672,21.973,30.762,39.551,42.480
1584600831.243,5.859,24.414,27.344,-4.395,51.758
1584600831.247,58.105,28.809,27.832,41.504,-2.441
1584600831.251,76.172,27.344,30.273,99.609,-32.227
1584600831.255,27.832,21.973,26.367,41.504,4.883
1584600831.259,9.277,19.531,25.879,-20.020,30.762
1584600831.263,47.852,24.902,28.809,28.320,33.203
1584600831.267,72.754,28.320,31.250,71.777,-4.395
1584600831.270,46.387,24.414,32.227,60.059,-0.488
1584600831.274,22.461,20.508,33.691,15.137,16.602
1584600831.278,46.875,25.879,33.203,7.324,20.020
1584600831.282,70.801,30.273,31.738,83.496,5.859
1584600831.286,47.363,23.438,32.227,91.797,13.184
1584600831.290,-0.977,18.066,30.273,10.742,48.828
1584600831.294,16.602,20.996,29.785,-14.648,48.828
1584600831.298,69.336,24.414,31.250,66.895,44.922
1584600831.302,58.105,24.902,30.762,108.398,7.812
1584600831.306,19.531,24.414,26.367,30.273,30.762
1584600831.310,11.719,20.020,28.320,-39.062,66.895
1584600831.313,47.852,24.902,27.344,31.738,36.133
1584600831.317,68.359,27.832,22.949,104.492,41.992
1584600831.321,27.344,20.508,29.297,40.527,19.531
1584600831.325,1.465,17.578,32.227,-21.973,-15.625
1584600831.329,28.320,22.949,31.738,22.949,12.207
1584600831.333,54.199,23.438,33.691,89.844,-20.020
1584600831.337,42.969,22.461,30.762,59.082,-16.113
1584600831.341,-0.977,22.461,27.344,-37.598,34.180
1584600831.345,10.254,19.043,30.762,-28.320,57.129
1584600831.349,56.152,23.438,34.668,77.148,119.141
1584600831.352,16.113,22.949,32.715,79.102,116.699
1584600831.356,-31.738,18.066,32.227,5.371,83.008
1584600831.360,-12.695,19.531,31.250,-26.367,50.781
1584600831.364,42.969,20.996,33.203,44.922,8.301
1584600831.368,53.711,25.391,35.645,95.703,21.484
1584600831.372,24.414,23.438,33.691,18.555,53.711
1584600831.376,13.672,20.508,27.344,-38.574,34.180
1584600831.380,40.039,23.438,24.902,20.020,23.926
1584600831.384,59.082,24.902,27.344,91.309,65.918
1584600831.388,16.113,23.926,31.738,36.621,74.707
1584600831.392,-7.324,23.926,33.203,-39.551,102.539
1584600831.395,21.484,25.391,33.691,15.137,16.602
1584600831.399,41.504,29.785,38.574,97.656,-4.395
1584600831.403,3.906,24.902,42.969,81.543,40.039
1584600831.407,-24.902,21.484,38.574,1.465,-8.301
1584600831.411,6.348,27.344,33.691,-11.230,-20.508
1584600831.415,66.895,32.227,34.180,59.082,27.832
1584600831.419,69.336,26.855,37.598,70.801,15.625
1584600831.423,11.230,12.207,44.434,27.832,3.906
1584600831.427,42.969,11.719,50.781,32.227,0.488
1584600831.431,107.422,29.785,41.992,104.004,-22.461
1584600831.435,67.871,39.062,29.785,105.957,-18.555
1584600831.438,0.488,34.180,20.508,-32.227,2.930
1584600831.442,-24.902,31.250,17.090,-87.891,35.645
1584600831.446,-17.090,35.156,20.020,20.508,20.020
1584600831.450,0.488,38.086,17.090,78.125,4.395
1584600831.454,-19.531,38.086,9.277,-4.883,42.969
1584600831.458,-36.133,40.527,4.883,-113.281,50.781
1584600831.462,-32.715,45.410,7.324,-38.086,0.488
1584600831.466,-22.949,49.316,4.883,82.031,7.324
1584600831.470,-34.668,43.945,3.906,9.766,2.441
1584600831.474,-55.176,48.340,0.488,-127.930,17.578
1584600831.477,-17.090,52.734,-3.906,-100.098,62.988
1584600831.481,28.320,52.246,2.441,58.594,21.484
1584600831.485,28.320,56.152,-2.441,45.410,9.277
1584600831.489,5.859,52.246,-9.766,-93.262,39.551
1584600831.493,-5.859,51.758,-9.277,-95.703,27.832
1584600831.497,47.852,60.059,-9.277,26.367,54.688
1584600831.501,30.762,56.152,-7.812,64.941,67.871
1584600831.505,-14.160,50.781,-15.137,-50.293,36.621
1584600831.509,11.230,55.176,-18.555,-92.285,11.230
1584600831.513,64.941,62.500,-16.602,14.160,26.367
1584600831.517,79.590,63.965,-15.137,95.215,62.500
1584600831.520,61.523,57.617,-16.602,11.230,41.504
1584600831.524,51.270,54.199,-20.508,-88.379,-25.391
1584600831.528,61.035,59.570,-22.949,-26.855,-0.488
1584600831.532,69.824,61.523,-27.344,83.496,23.438
1584600831.536,64.453,58.594,-30.762,40.039,22.949
1584600831.540,59.082,58.594,-31.738,-93.262,20.508
1584600831.544,59.082,58.105,-26.855,-63.965,20.508
1584600831.548,71.777,58.105,-22.461,79.590,11.230
1584600831.552,83.496,59.570,-24.902,86.914,28.809
1584600831.556,56.641,53.711,-27.344,-38.086,41.016
1584600831.560,17.578,48.340,-22.949,-75.195,-5.859
1584600831.563,39.062,49.316,-13.672,63.477,7.324
1584600831.567,61.035,44.434,-6.348,125.488,8.301
1584600831.571,28.320,37.598,-5.859,0.977,40.527
1584600831.575,22.949,40.039,-7.324,-76.172,65.430
1584600831.579,68.359,43.945,-4.883,32.227,3.418
1584600831.583,81.543,41.992,-0.977,143.555,11.230
1584600831.587,55.664,39.062,-3.418,68.359,26.367
1584600831.591,46.875,32.715,-3.906,-57.129,7.324
1584600831.595,62.012,30.273,4.883,8.789,13.672
1584600831.599,91.309,39.551,4.883,143.066,-18.066
1584600831.602,89.355,38.574,2.441,98.145,-30.273
1584600831.606,48.340,29.785,6.348,-38.574,52.734
1584600831.610,32.715,34.180,7.324,-23.438,62.500
1584600831.614,53.711,35.156,8.301,128.418,-11.719
1584600831.618,60.547,29.297,10.742,145.508,51.270
1584600831.622,45.410,24.902,10.254,5.859,96.680
1584600831.626,44.922,20.996,12.695,-41.016,54.688
1584600831.630,60.547,22.949,16.602,88.867,47.852
1584600831.634,73.242,24.414,14.160,165.039,49.316
1584600831.638,57.129,20.020,10.254,46.875,45.410
1584600831.642,37.109,18.066,9.766,-64.941,-20.996
1584600831.645,62.988,23.926,9.277,29.297,-20.020
1584600831.649,70.801,21.484,9.766,154.297,16.602
1584600831.653,54.199,15.625,9.766,82.520,14.648
1584600831.657,33.691,16.113,7.324,-64.453,31.738
1584600831.661,45.410,20.996,7.324,-12.695,18.555
1584600831.665,75.684,26.367,9.277,136.719,13.184
1584600831.669,67.871,21.484,8.789,102.539,58.105
1584600831.673,50.781,14.648,2.441,-41.992,29.297
1584600831.677,44.434,17.578,2.441,-41.992,-10.742
1584600831.681,36.621,23.926,6.836,94.238,-1.465
1584600831.685,24.902,23.438,7.324,118.164,45.898
1584600831.688,7.324,18.066,6.836,-7.812,38.086
1584600831.692,2.441,17.090,4.883,-73.242,71.289
1584600831.696,35.156,19.531,6.836,58.105,91.797
1584600831.700,55.664,19.531,6.836,149.902,30.273
1584600831.704,32.715,18.066,2.441,27.344,16.113
1584600831.708,4.883,15.625,7.324,-83.984,-7.324
1584600831.712,19.043,19.531,13.184,16.602,32.715
1584600831.716,62.500,20.508,13.672,156.738,73.242
1584600831.720,40.039,16.113,13.184,98.145,45.898
1584600831.724,0.977,15.625,11.230,-57.617,18.555
1584600831.727,26.367,21.484,16.113,-29.785,18.066
1584600831.731,56.641,23.926,23.438,134.277,20.996
1584600831.735,40.039,18.066,20.996,124.023,-2.441
1584600831.739,8.301,13.184,18.555,-40.039,0.000
1584600831.743,18.066,18.555,20.996,-47.363,29.297
1584600831.747,59.082,26.855,22.461,116.699,52.734
1584600831.751,62.012,27.832,19.043,152.832,70.801
1584600831.755,38.574,22.949,17.090,6.348,73.730
1584600831.759,30.273,21.973,20.996,-68.359,55.176
1584600831.763,41.504,26.367,26.855,66.406,26.367
1584600831.767,59.570,26.367,31.738,173.340,4.883
1584600831.770,38.086,20.996,29.297,65.918,70.312
1584600831.774,19.043,22.461,22.461,-68.359,107.422
1584600831.778,34.668,28.320,25.391,6.348,58.594
1584600831.782,43.457,27.832,31.738,141.113,48.340
1584600831.786,55.664,25.879,25.879,92.773,19.043
1584600831.790,44.922,23.926,20.996,-51.270,14.648
1584600831.794,34.180,21.973,26.367,-21.484,41.504
1584600831.798,41.992,25.879,31.738,137.695,40.527
1584600831.802,22.461,25.879,30.762,130.371,-4.395
1584600831.806,1.953,25.391,26.367,-26.855,-3.418
1584600831.810,2.441,26.367,28.320,-51.270,23.926
1584600831.813,30.762,30.762,27.832,89.844,16.113
1584600831.817,43.457,31.738,26.367,143.066,41.504
1584600831.821,22.461,24.414,27.344,10.254,40.039
1584600831.825,5.859,20.996,24.902,-80.078,25.391
1584600831.829,24.902,23.438,25.879,43.457,40.039
1584600831.833,37.109,25.391,28.320,146.484,20.508
1584600831.837,13.672,22.461,24.902,44.922,8.789
1584600831.841,-2.930,18.066,26.855,-77.637,10.254
1584600831.845,20.508,23.438,29.297,-5.371,20.996
1584600831.849,41.992,30.273,27.832,133.301,45.410
1584600831.852,35.645,27.344,23.438,86.914,40.527
1584600831.856,14.648,22.949,17.578,-69.824,26.855
1584600831.860,-0.488,22.461,20.508,-58.594,70.312
1584600831.864,18.555,23.926,25.391,99.121,122.070
1584600831.868,22.949,20.508,22.949,122.070,92.773
1584600831.872,4.883,18.066,19.043,-28.320,37.598
1584600831.876,4.883,20.020,20.020,-83.008,13.184
1584600831.880,21.484,23.926,26.855,60.059,3.906
1584600831.884,34.668,23.926,29.785,143.555,40.039
1584600831.888,23.438,18.066,23.926,16.113,59.570
1584600831.892,8.301,18.066,22.949,-96.680,49.316
1584600831.895,35.645,24.902,28.809,20.508,29.297
1584600831.899,53.223,27.832,30.273,154.785,43.457
1584600831.903,32.715,23.438,29.297,69.336,32.715
1584600831.907,8.301,18.555,27.344,-77.148,-40.527
1584600831.911,24.414,22.461,30.273,-18.066,55.176
1584600831.915,53.711,26.367,33.691,129.883,107.910
1584600831.919,47.363,24.414,31.250,97.168,65.918
1584600831.923,20.020,21.973,26.367,-63.965,39.062
1584600831.927,8.301,19.531,29.785,-64.941,24.414
1584600831.931,32.715,20.508,37.109,99.609,36.133
1584600831.935,46.875,19.531,34.180,134.277,7.324
1584600831.938,23.438,17.578,31.250,-0.977,26.855
1584600831.942,12.695,20.020,33.203,-67.383,37.109
1584600831.946,35.156,23.926,35.156,50.781,48.340
1584600831.950,44.922,24.414,34.180,129.395,63.965
1584600831.954,30.273,20.020,33.203,23.926,43.457
1584600831.958,10.254,19.043,33.203,-82.520,-7.812
1584600831.962,11.230,22.461,32.715,2.930,28.809
1584600831.966,26.367,25.391,29.785,125.000,22.949
1584600831.970,26.367,21.484,29.785,67.871,6.348
1584600831.974,9.277,17.578,32.227,-57.129,5.371
1584600831.977,15.137,20.020,30.762,-24.902,-42.969
1584600831.981,30.273,21.484,28.809,111.328,1.953
1584600831.985,18.555,18.555,26.367,109.375,54.199
1584600831.989,6.348,16.113,22.949,-33.203,42.480
1584600831.993,13.672,18.555,24.414,-62.500,-35.156
1584600831.997,34.668,24.414,25.879,79.590,-22.461
1584600832.001,54.688,28.320,26.855,140.625,23.926
1584600832.005,26.367,19.531,28.320,3.418,19.043
1584600832.009,-5.371,13.672,25.879,-92.285,70.312
1584600832.013,8.301,14.160,28.320,14.648,46.875
1584600832.017,19.043,12.207,30.762,110.352,-3.418
1584600832.020,16.602,11.230,26.855,35.156,27.832
1584600832.024,-5.859,9.766,23.926,-89.355,32.227
1584600832.028,0.000,13.672,24.902,-27.344,-7.812
1584600832.032,32.227,16.113,27.832,118.652,-7.812
1584600832.036,34.668,15.137,27.344,80.566,19.043
1584600832.040,0.000,11.230,24.902,-66.406,13.672
1584600832.044,-10.254,11.230,27.344,-56.641,24.902
1584600832.048,17.578,14.648,29.297,93.262,25.391
1584600832.052,26.367,17.090,25.391,101.562,24.414
1584600832.056,15.137,14.648,23.926,-41.992,50.293
1584600832.060,10.254,12.695,26.855,-83.984,18.066
1584600832.063,4.883,17.578,30.762,52.246,27.832
1584600832.067,6.348,16.602,31.250,128.906,47.852
1584600832.071,2.441,12.695,29.785,16.113,41.016
1584600832.075,-4.395,13.184,28.320,-74.707,44.434
1584600832.079,6.348,18.066,30.762,32.227,40.527
1584600832.083,21.484,21.484,31.250,143.555,45.898
1584600832.087,20.996,21.484,30.273,67.871,37.109
1584600832.091,9.766,20.508,31.250,-60.547,0.488
1584600832.095,17.090,22.949,33.203,-14.648,-5.859
1584600832.099,34.668,24.902,33.203,122.070,35.156
1584600832.102,35.645,23.438,34.668,90.820,49.316
1584600832.106,17.090,22.461,35.645,-44.922,56.152
1584600832.110,15.625,26.855,35.156,-45.410,61.035
1584600832.114,39.551,31.738,36.133,88.379,40.527
1584600832.118,44.434,30.273,33.203,124.512,32.227
1584600832.122,27.832,24.902,29.297,-1.953,55.664
1584600832.126,20.508,21.973,29.297,-63.477,74.707
1584600832.130,35.156,23.926,31.738,50.781,41.992
1584600832.134,45.898,26.855,33.691,129.395,11.719
1584600832.138,40.039,27.344,31.250,30.273,11.719
1584600832.142,20.508,24.902,30.273,-69.336,15.625
1584600832.145,30.762,26.367,32.715,2.930,37.109
1584600832.149,62.988,29.297,34.180,108.887,-6.836
1584600832.153,47.363,23.926,32.715,62.988,5.371
1584600832.157,0.977,19.043,28.809,-62.988,56.641
1584600832.161,-4.883,20.020,30.762,-42.969,20.020
1584600832.165,16.602,22.949,35.645,93.262,76.172
1584600832.169,11.719,20.508,32.715,98.145,109.863
1584600832.173,2.930,17.578,28.320,-35.645,5.859
1584600832.177,4.883,19.043,31.250,-67.383,-47.363
1584600832.181,25.391,22.949,34.668,63.965,-34.180
1584600832.185,35.156,21.973,30.762,109.375,43.457
1584600832.188,13.672,18.066,26.855,-7.812,80.566
1584600832.192,0.977,17.578,28.809,-81.543,39.062
1584600832.196,11.719,20.996,32.715,22.949,-4.883
1584600832.200,19.043,25.391,34.668,119.141,-11.230
1584600832.204,15.137,23.926,31.250,36.621,-4.395
1584600832.208,-0.977,17.578,31.250,-82.520,2.441
1584600832.212,6.348,23.438,33.203,-28.809,20.020
1584600832.216,32.227,28.809,30.762,101.562,23.438
1584600832.220,30.273,23.438,28.809,71.777,36.621
1584600832.224,11.719,22.461,26.367,-60.547,28.809
1584600832.227,9.277,24.414,28.320,-54.199,-5.859
1584600832.231,20.508,24.902,33.203,83.496,-42.969
1584600832.235,30.762,24.902,29.785,95.215,-35.645
1584600832.239,20.996,21.973,25.879,-34.668,-26.855
1584600832.243,10.254,19.043,27.344,-72.754,-27.344
1584600832.247,34.180,22.949,29.785,47.363,3.418
1584600832.251,46.875,24.902,29.297,110.352,8.301
1584600832.255,37.598,23.926,24.902,2.930,19.531
1584600832.259,36.133,25.879,23.926,-90.332,39.551
1584600832.263,36.133,25.879,27.344,3.906,60.547
1584600832.267,46.387,23.926,30.273,120.605,57.129
1584600832.270,31.250,18.555,30.273,60.547,9.766
1584600832.274,-18.066,15.137,26.855,-54.688,53.711
1584600832.278,-30.273,16.602,26.367,-11.230,52.246
1584600832.282,-1.465,20.508,30.273,110.352,-23.926
1584600832.286,7.324,20.508,29.297,92.773,-14.160
1584600832.290,-1.465,23.438,25.879,-34.668,17.090
1584600832.294,0.000,25.879,26.367,-42.480,56.152
1584600832.298,15.137,26.367,28.320,87.402,89.355
1584600832.302,29.785,29.297,28.320,117.188,80.566
1584600832.306,19.531,25.391,27.344,-0.488,62.500
1584600832.310,1.953,23.926,28.320,-65.918,-2.441
1584600832.313,18.555,28.320,29.785,51.270,-20.508
1584600832.317,47.852,27.344,30.273,134.277,-24.414
1584600832.321,34.668,23.438,26.855,29.785,1.953
1584600832.325,15.625,21.973,23.926,-76.660,-2.930
1584600832.329,24.414,22.461,25.879,3.906,-11.719
1584600832.333,39.551,22.949,24.414,118.164,-5.859
1584600832.337,34.668,17.090,21.484,65.430,0.000
1584600832.341,14.648,11.719,22.461,-57.617,14.160
1584600832.345,6.348,14.648,27.832,-39.062,16.602
1584600832.349,25.879,21.484,26.367,86.914,17.578
1584600832.352,48.828,24.902,16.113,83.984,40.527
1584600832.356,29.785,19.531,15.137,-42.969,69.336
1584600832.360,18.066,17.578,20.996,-70.312,24.902
1584600832.364,38.574,23.438,23.926,56.641,53.223
1584600832.368,54.688,23.926,24.414,112.793,83.008
1584600832.372,39.062,19.531,19.531,-4.395,51.270
1584600832.376,-2.930,13.184,20.508,-85.449,48.340
1584600832.380,6.348,5.859,29.785,29.785,32.715
1584600832.384,54.688,6.836,39.062,157.715,0.000
1584600832.388,42.480,20.020,29.785,58.105,13.672
1584600832.392,-26.367,25.879,10.254,-117.188,27.344
1584600832.395,-32.227,27.832,10.254,-60.059,-15.137
1584600832.399,-16.113,27.344,17.578,78.613,-1.953
1584600832.403,-26.367,22.461,17.578,39.062,-9.766
1584600832.407,-48.828,22.949,15.625,-101.562,7.812
1584600832.411,-50.781,29.785,13.672,-89.844,28.320
1584600832.415,-12.695,40.527,9.766,40.039,34.668
1584600832.419,4.883,44.434,8.301,47.363,48.828
1584600832.423,-4.883,41.504,8.301,-75.195,41.504
1584600832.427,-26.367,40.527,9.277,-119.629,-8.301
1584600832.431,-7.812,41.992,10.254,11.230,-20.020
1584600832.435,22.461,42.480,9.277,69.824,-13.184
1584600832.438,15.625,39.551,8.301,-40.527,32.715
1584600832.442,-2.930,34.180,8.789,-118.652,4.395
1584600832.446,0.488,36.133,14.160,-10.254,-32.715
1584600832.450,22.461,37.109,18.066,100.098,60.547
1584600832.454,10.254,31.250,18.555,32.227,55.664
1584600832.458,-7.324,28.809,16.602,-91.309,21.973
1584600832.462,-3.418,31.250,16.602,-40.039,43.457
1584600832.466,11.719,31.250,21.973,105.957,48.340
1584600832.470,15.137,27.344,21.484,70.801,7.812
1584600832.474,-1.465,23.438,19.531,-72.754,10.742
1584600832.477,-0.977,24.902,22.461,-61.035,72.266
1584600832.481,21.973,27.344,23.926,74.219,72.754
1584600832.485,34.180,25.391,22.949,90.820,43.945
1584600832.489,15.137,20.508,20.508,-41.992,62.500
1584600832.493,1.953,24.902,20.508,-85.449,88.867
1584600832.497,31.250,31.250,25.879,47.363,88.867
1584600832.501,38.574,27.832,29.297,110.352,81.543
1584600832.505,2.930,21.973,27.832,0.977,44.922
1584600832.509,-7.812,23.926,25.879,-70.312,-10.254
1584600832.513,19.531,32.715,26.367,21.484,-19.043
1584600832.517,21.973,33.203,26.367,108.887,-8.789
1584600832.520,12.207,26.367,24.414,39.062,8.301
1584600832.524,19.531,26.855,20.996,-84.473,9.766
1584600832.528,32.715,32.715,23.926,-19.531,20.508
1584600832.532,49.316,32.227,24.414,115.723,22.461
1584600832.536,47.852,28.320,23.438,78.613,-26.367
1584600832.540,19.043,25.879,23.438,-56.641,10.254
1584600832.544,31.250,30.273,19.043,-58.105,77.637
1584600832.548,52.246,31.738,20.508,81.055,79.590
1584600832.552,41.504,27.344,23.926,113.281,62.500
1584600832.556,21.484,22.461,23.926,-11.719,41.992
1584600832.560,2.930,24.902,22.461,-73.730,68.359
1584600832.563,10.742,30.762,26.855,53.711,49.316
1584600832.567,10.742,28.809,25.391,125.977,-21.484
1584600832.571,3.418,25.391,21.973,23.438,-34.180
1584600832.575,9.277,26.367,21.973,-73.730,-10.254
1584600832.579,7.324,25.879,24.902,7.812,-15.625
1584600832.583,24.414,26.855,25.391,125.000,0.000
1584600832.587,38.574,30.762,19.531,61.523,10.742
1584600832.591,24.902,25.879,21.484,-62.500,18.066
1584600832.595,23.926,25.879,24.414,-23.438,75.195
1584600832.599,32.715,29.297,27.344,107.910,85.938
1584600832.602,40.527,30.762,27.832,96.191,58.105
1584600832.606,35.156,26.855,23.438,-30.762,7.812
1584600832.610,30.273,25.879,21.484,-67.871,-4.883
1584600832.614,41.016,25.391,27.832,71.289,48.340
1584600832.618,56.152,25.391,29.297,122.070,5.371
1584600832.622,46.387,26.855,25.879,-1.953,-24.414
1584600832.626,24.414,24.902,26.367,-75.195,20.020
1584600832.630,42.480,29.785,24.414,17.090,14.648
1584600832.634,61.035,34.180,24.414,118.652,-11.719
1584600832.638,47.363,29.297,22.461,45.898,9.277
1584600832.642,23.438,26.367,21.484,-68.848,5.371
1584600832.645,25.879,29.785,27.832,-10.254,9.766
1584600832.649,54.688,35.156,27.832,112.305,22.461
1584600832.653,49.805,32.227,23.926,76.660,52.246
1584600832.657,11.719,23.926,25.879,-48.340,58.105
1584600832.661,6.836,26.855,27.832,-38.086,28.809
1584600832.665,22.461,28.809,29.785,86.914,42.969
1584600832.669,18.066,24.414,31.250,112.305,2.930
1584600832.673,18.066,21.973,25.879,-23.926,13.184
1584600832.677,20.508,22.949,26.367,-67.871,15.625
1584600832.681,11.719,21.973,32.227,75.195,16.113
1584600832.685,30.762,21.484,29.785,129.883,29.785
1584600832.688,35.156,20.020,25.391,10.742,-29.785
1584600832.692,17.578,22.461,28.320,-60.547,-23.438
1584600832.696,21.973,28.809,33.203,38.574,40.039
1584600832.700,35.156,27.344,31.250,128.418,60.059
1584600832.704,41.992,20.996,23.926,50.781,35.156
1584600832.708,29.785,19.043,24.414,-52.734,51.758
1584600832.712,15.137,25.391,25.391,-12.207,38.574
1584600832.716,17.090,28.320,20.508,90.332,5.371
1584600832.720,21.973,25.391,13.672,54.199,43.945
1584600832.724,13.184,24.414,17.090,-57.129,38.574
1584600832.727,8.301,23.926,25.879,-46.387,57.129
1584600832.731,28.809,27.344,26.855,75.195,49.805
1584600832.735,39.551,27.832,24.902,95.215,30.273
1584600832.739,38.574,26.855,22.461,-21.973,27.344
1584600832.743,22.949,29.297,21.484,-62.500,13.184
1584600832.747,19.043,30.762,27.832,56.641,44.922
1584600832.751,32.227,30.273,25.391,112.793,13.672
1584600832.755,26.855,25.391,20.020,12.695,-23.438
1584600832.759,16.113,23.438,23.438,-66.406,23.438
1584600832.763,37.598,30.762,26.367,8.789,33.691
1584600832.767,60.059,34.180,25.879,108.887,22.949
1584600832.770,48.340,24.414,25.391,67.383,29.297
1584600832.774,10.742,19.043,27.344,-39.062,19.043
1584600832.778,4.395,22.949,32.227,-8.789,5.371
1584600832.782,32.715,29.785,28.809,107.422,70.312
1584600832.786,45.898,28.320,23.926,93.262,104.004
1584600832.790,33.691,20.996,24.414,-29.297,78.613
1584600832.794,19.043,25.391,20.996,-62.500,68.848
1584600832.798,16.602,25.879,24.414,67.383,47.852
1584600832.802,22.949,24.902,29.785,123.535,58.105
1584600832.806,13.184,21.973,27.832,4.395,42.969
1584600832.810,2.930,22.461,26.855,-65.430,10.254
1584600832.813,14.160,29.297,28.320,40.039,20.508
1584600832.817,27.832,26.855,26.855,123.535,-3.906
1584600832.821,30.273,23.926,24.902,38.086,-14.160
1584600832.825,20.508,25.879,24.414,-66.895,68.359
1584600832.829,30.273,26.855,25.879,8.301,53.711
1584600832.833,49.316,27.832,26.367,117.188,12.207
1584600832.837,37.109,25.879,23.438,63.477,5.371
1584600832.841,22.949,20.508,22.461,-58.594,-3.906
1584600832.845,23.438,20.508,24.902,-34.668,-3.906
1584600832.849,30.762,27.344,25.879,90.332,-16.602
1584600832.852,32.715,25.391,21.973,89.355,-12.695
1584600832.856,11.719,21.484,20.508,-33.203,-50.293
1584600832.860,10.254,24.902,22.949,-53.711,-44.434
1584600832.864,33.203,28.809,21.484,67.871,47.852
1584600832.868,40.039,28.809,19.531,104.492,18.555
1584600832.872,22.461,24.414,17.090,0.488,-3.418
1584600832.876,1.953,21.973,16.113,-69.336,-15.625
1584600832.880,25.391,25.879,18.066,22.949,-18.066
1584600832.884,62.012,30.273,17.090,112.793,21.484
1584600832.888,53.711,28.320,19.043,39.062,19.531
1584600832.892,22.461,24.414,20.996,-60.547,51.758
1584600832.895,17.090,29.785,20.020,-10.742,54.688
1584600832.899,35.156,32.715,19.043,97.656,-2.930
1584600832.903,32.715,27.344,21.973,70.312,5.859
1584600832.907,15.625,25.391,20.020,-44.922,43.457
1584600832.911,18.066,28.809,19.531,-35.645,-9.766
1584600832.915,34.668,32.227,23.438,79.102,-23.438
1584600832.919,39.551,30.273,27.344,96.191,-14.648
1584600832.923,22.949,28.809,23.926,-13.672,-8.789
1584600832.927,12.695,27.344,20.996,-63.477,79.590
1584600832.931,17.090,28.320,29.297,48.340,47.363
1584600832.935,31.738,29.297,31.738,120.605,-18.066
1584600832.938,28.320,24.902,28.320,29.297,36.133
1584600832.942,10.254,24.902,24.414,-62.012,36.133
1584600832.946,20.020,29.297,25.391,16.602,24.902
1584600832.950,29.785,29.297,25.879,106.934,25.391
1584600832.954,27.344,24.902,23.926,40.039,0.000
1584600832.958,27.832,21.973,21.973,-65.918,26.367
1584600832.962,28.809,25.879,21.973,-28.809,62.500
1584600832.966,37.109,28.320,22.949,80.078,47.852
1584600832.970,40.527,22.461,23.926,74.707,69.336
1584600832.974,22.461,20.020,21.484,-31.250,96.191
1584600832.977,8.301,22.461,21.484,-52.246,72.754
1584600832.981,17.578,25.391,23.926,61.035,87.402
1584600832.985,11.230,20.020,26.367,103.516,91.797
1584600832.989,-8.301,13.672,23.926,-7.812,12.207
1584600832.993,-10.254,18.066,20.508,-71.777,18.555
1584600832.997,4.395,19.531,23.926,41.016,90.820
1584600833.001,24.902,19.043,20.996,110.840,109.863
1584600833.005,19.043,17.578,17.578,11.230,63.477
1584600833.009,-2.930,14.648,20.508,-74.707,24.902
1584600833.013,6.348,20.508,20.508,8.301,9.766
1584600833.017,25.391,23.438,22.461,114.258,-19.531
1584600833.020,13.672,15.625,25.879,57.617,1.953
1584600833.024,0.488,15.137,21.484,-62.988,53.711
1584600833.028,5.859,20.020,23.438,-32.227,33.691
1584600833.032,19.043,20.996,27.832,95.215,46.875
1584600833.036,25.879,20.020,22.461,85.938,113.770
1584600833.040,11.230,16.602,20.996,-45.410,67.871
1584600833.044,11.230,22.461,22.949,-48.828,49.805
1584600833.048,41.016,28.809,23.926,82.031,34.668
1584600833.052,51.270,32.715,23.438,108.398,-13.672
1584600833.056,38.086,30.273,21.973,-8.301,16.602
1584600833.060,29.297,25.879,23.926,-64.453,-6.348
1584600833.063,33.203,29.785,27.832,46.875,9.277
1584600833.067,51.758,29.297,26.855,127.930,81.543
1584600833.071,57.617,26.367,24.414,37.109,44.434
1584600833.075,28.320,30.273,24.414,-67.383,-3.418
1584600833.079,18.066,28.809,28.809,12.207,-26.367
1584600833.083,34.668,28.809,32.227,132.812,1.953
1584600833.087,32.715,29.297,28.809,80.566,31.250
1584600833.091,13.184,28.320,21.484,-54.688,-3.418
1584600833.095,9.277,30.273,22.461,-25.879,-28.809
1584600833.099,31.738,30.762,27.344,115.234,-24.414
1584600833.102,39.062,29.785,28.809,103.516,30.762
1584600833.106,21.973,28.809,24.414,-31.738,3.906
1584600833.110,25.391,34.668,16.602,-47.852,-33.691
1584600833.114,46.387,36.621,21.973,84.961,33.203
1584600833.118,42.969,25.391,28.320,118.164,46.387
1584600833.122,33.203,20.508,26.367,-5.859,45.898
1584600833.126,19.531,24.414,25.391,-67.383,25.879
1584600833.130,28.320,28.320,23.926,40.039,0.000
1584600833.134,46.387,29.785,25.879,125.977,27.344
1584600833.138,38.086,33.691,20.020,24.414,51.758
1584600833.142,17.090,34.180,19.531,-71.777,41.016
1584600833.145,12.207,25.391,25.391,6.836,40.527
1584600833.149,43.457,23.438,27.832,120.117,9.277
1584600833.153,56.152,22.949,28.320,85.449,52.734
1584600833.157,28.320,20.020,28.320,-43.945,75.684
1584600833.161,17.090,22.949,33.203,-27.344,22.949
1584600833.165,54.199,30.273,34.180,113.770,37.598
1584600833.169,57.129,29.297,30.273,106.934,38.086
1584600833.173,22.949,24.414,27.832,-30.762,26.855
1584600833.177,21.484,28.320,29.297,-47.852,37.109
1584600833.181,34.668,28.809,29.785,79.102,34.180
1584600833.185,42.969,25.879,25.391,123.047,45.898
1584600833.188,25.879,21.484,25.879,16.113,53.711
1584600833.192,6.836,17.578,25.391,-62.012,47.363
1584600833.196,33.691,23.926,26.367,41.504,41.016
1584600833.200,54.688,27.832,29.785,140.625,51.758
1584600833.204,46.387,23.438,24.902,56.152,41.992
1584600833.208,23.438,21.484,22.949,-51.270,14.160
1584600833.212,24.902,23.926,27.832,17.578,17.090
1584600833.216,40.527,22.949,33.203,132.324,-19.043
1584600833.220,28.320,16.602,30.762,93.262,24.902
1584600833.224,16.602,12.695,25.879,-39.062,28.809
1584600833.227,32.715,19.043,28.320,-34.180,-24.414
1584600833.231,58.594,25.879,34.180,114.746,6.836
1584600833.235,60.547,21.973,31.738,131.836,-19.043
1584600833.239,29.785,18.066,31.738,1.465,-60.059
1584600833.243,13.184,19.531,33.203,-41.992,-17.090
1584600833.247,18.066,20.020,30.762,80.078,27.832
1584600833.251,46.875,25.391,24.414,161.621,70.312
1584600833.255,49.316,22.461,28.320,56.641,60.547
1584600833.259,2.441,17.578,36.621,-59.082,0.977
1584600833.263,-7.324,19.531,40.527,23.926,29.297
1584600833.267,26.855,16.113,42.969,146.973,50.293
1584600833.270,31.738,11.230,43.457,82.520,-18.555
1584600833.274,4.395,12.207,38.574,-56.641,-24.414
1584600833.278,17.578,14.160,41.992,8.789,2.441
1584600833.282,44.434,12.695,46.875,141.602,38.574
1584600833.286,43.457,9.766,45.898,104.980,46.875
1584600833.290,16.602,4.883,46.875,-19.531,11.230
1584600833.294,8.789,4.395,48.340,-11.230,25.391
1584600833.298,43.945,7.812,53.711,130.859,-1.465
1584600833.302,45.898,11.719,51.270,134.277,4.883
1584600833.306,33.203,13.672,41.992,-2.441,14.160
1584600833.310,36.621,17.578,40.527,-40.039,10.742
1584600833.313,44.922,19.531,42.480,78.125,14.160
1584600833.317,41.504,16.602,41.504,150.391,56.641
1584600833.321,21.973,10.742,40.527,54.688,56.641
1584600833.325,12.207,11.719,33.691,-42.969,31.738
1584600833.329,18.066,13.672,37.109,42.480,2.930
1584600833.333,32.227,11.719,43.457,144.531,-18.555
1584600833.337,46.875,14.160,33.691,78.125,22.949
1584600833.341,29.785,15.137,30.273,-43.457,61.035
1584600833.345,12.695,18.555,34.668,-6.836,28.320
1584600833.349,28.809,23.926,32.715,120.605,19.531
1584600833.352,32.227,20.020,33.203,109.863,20.508
1584600833.356,21.973,16.602,31.738,-14.648,17.090
1584600833.360,25.391,16.113,29.297,-35.156,61.035
1584600833.364,46.387,20.508,32.715,91.309,31.738
1584600833.368,56.152,18.555,37.109,135.742,-3.418
1584600833.372,31.250,16.602,35.156,21.973,13.184
1584600833.376,10.742,20.020,34.180,-48.828,19.043
1584600833.380,21.484,20.996,36.621,43.945,22.461
1584600833.384,30.762,19.531,40.039,127.930,-15.625
1584600833.388,25.879,17.578,39.062,55.176,11.719
1584600833.392,14.160,18.555,36.133,-50.293,42.480
1584600833.395,23.438,21.484,36.133,8.301,37.109
1584600833.399,36.621,21.973,36.621,129.883,90.332
1584600833.403,30.762,21.973,34.668,89.844,66.406
1584600833.407,21.484,20.508,32.227,-31.738,24.902
1584600833.411,3.906,22.949,29.297,-24.414,22.949
1584600833.415,25.391,30.762,24.414,101.074,10.742
1584600833.419,43.457,28.809,25.879,108.887,25.879
1584600833.423,17.578,22.461,27.344,-16.113,5.859
1584600833.427,21.484,27.832,27.832,-52.246,-0.977
1584600833.431,44.434,32.227,36.133,66.895,16.113
1584600833.435,46.387,29.297,33.203,130.859,25.879
1584600833.438,24.902,22.949,29.297,29.785,-7.324
1584600833.442,15.625,24.902,30.273,-51.270,8.789
1584600833.446,41.992,35.156,29.785,40.039,42.480
1584600833.450,64.453,36.133,32.715,133.301,24.902
1584600833.454,48.340,33.203,31.738,52.734,20.996
1584600833.458,29.785,31.250,27.344,-51.758,41.992
1584600833.462,36.133,33.691,32.715,1.465,33.691
1584600833.466,52.246,34.668,34.180,109.863,46.387
1584600833.470,44.434,27.832,31.738,85.938,44.434
1584600833.474,24.902,23.926,30.273,-26.855,17.578
1584600833.477,17.090,25.879,30.762,-36.621,35.645
1584600833.481,35.645,29.785,32.715,82.031,24.414
1584600833.485,61.035,29.297,30.762,107.422,30.762
1584600833.489,52.246,25.879,27.832,-3.418,62.012
1584600833.493,23.926,22.949,28.809,-52.246,19.531
1584600833.497,35.156,27.832,27.344,51.270,6.836
1584600833.501,62.500,32.715,22.949,108.887,61.035
1584600833.505,48.828,23.926,27.344,10.254,83.496
1584600833.509,18.555,19.043,27.344,-74.707,57.129
1584600833.513,11.719,20.020,30.762,15.625,42.969
1584600833.517,38.574,24.902,31.250,109.375,72.754
1584600833.520,32.715,24.414,25.879,45.410,46.387
1584600833.524,10.254,20.508,25.879,-53.223,-10.254
1584600833.528,24.414,28.320,27.832,-22.461,25.879
1584600833.532,44.922,31.738,30.762,97.168,13.672
1584600833.536,26.367,27.832,23.926,83.984,39.062
1584600833.540,0.488,24.414,19.531,-51.270,41.992
1584600833.544,7.812,26.855,24.902,-60.059,-9.766
1584600833.548,7.812,26.855,31.738,81.543,8.789
1584600833.552,22.949,25.879,29.297,118.164,36.621
1584600833.556,28.809,24.414,23.438,-4.395,49.805
1584600833.560,7.812,23.438,22.949,-74.219,20.996
1584600833.563,28.320,29.785,26.855,36.133,76.172
1584600833.567,52.246,30.762,27.344,123.047,90.332
1584600833.571,47.363,25.391,24.414,41.504,-20.508
1584600833.575,32.715,24.414,20.020,-56.152,-20.020
1584600833.579,28.320,26.367,22.949,8.301,65.430
1584600833.583,48.828,20.996,32.227,128.906,58.594
1584600833.587,83.496,13.184,36.133,111.816,13.184
1584600833.591,78.125,20.996,33.691,4.883,11.719
1584600833.595,34.180,32.227,25.391,-9.766,20.996
1584600833.599,29.785,35.156,16.602,78.613,-38.574
1584600833.602,45.898,35.156,17.090,83.984,-58.594
1584600833.606,37.598,33.691,20.020,-28.809,70.801
1584600833.610,40.039,35.645,17.578,-54.199,58.594
1584600833.614,68.359,39.551,15.137,66.406,-6.348
1584600833.618,69.824,40.039,18.555,110.352,39.551
1584600833.622,49.316,36.133,20.508,8.301,55.176
1584600833.626,38.086,38.086,20.996,-56.641,40.527
1584600833.630,45.898,41.504,22.949,37.598,-6.348
1584600833.634,66.895,42.480,17.578,114.746,-33.203
1584600833.638,55.664,39.551,16.602,28.809,-16.602
1584600833.642,22.461,33.203,22.461,-54.688,12.695
1584600833.645,30.273,38.086,22.461,16.113,25.391
1584600833.649,62.012,45.410,22.949,112.305,36.133
1584600833.653,49.805,41.016,21.973,64.453,113.770
1584600833.657,28.320,34.180,20.508,-46.875,58.594
1584600833.661,31.250,35.645,23.926,-26.855,-35.645
1584600833.665,34.668,39.062,25.391,94.727,7.324
1584600833.669,42.480,33.691,23.438,86.914,22.461
1584600833.673,28.809,27.832,23.926,-30.762,-7.812
1584600833.677,8.789,28.809,23.926,-47.852,24.414
1584600833.681,15.625,28.809,28.809,51.270,71.289
1584600833.685,34.180,28.809,28.320,104.980,43.457
1584600833.688,29.785,28.320,21.973,9.766,34.668
1584600833.692,18.555,24.414,27.344,-62.012,55.176
1584600833.696,40.039,29.297,29.785,34.668,51.270
1584600833.700,44.434,33.203,29.785,124.023,9.277
1584600833.704,29.297,27.344,25.879,47.363,49.316
1584600833.708,22.461,21.484,19.043,-70.801,103.027
1584600833.712,32.227,25.879,23.438,-16.602,44.434
1584600833.716,42.480,28.809,25.879,104.980,15.137
1584600833.720,50.781,29.297,24.902,67.383,43.457
1584600833.724,44.922,30.273,23.926,-57.617,72.266
1584600833.727,27.832,29.785,23.926,-45.898,26.367
1584600833.731,50.293,33.203,23.438,89.844,20.508
1584600833.735,56.152,32.715,19.531,99.609,50.293
1584600833.739,20.020,27.832,20.996,-26.855,15.137
1584600833.743,2.930,27.344,26.367,-58.594,6.836
1584600833.747,30.273,29.785,34.668,71.777,66.406
1584600833.751,46.875,27.344,30.762,117.188,74.219
1584600833.755,40.039,25.391,27.832,13.672,49.805
1584600833.759,37.109,28.320,32.227,-52.246,50.293
1584600833.763,44.434,29.297,36.133,37.598,11.719
1584600833.767,57.129,30.273,31.250,119.629,1.465
1584600833.770,60.547,31.738,24.902,40.527,13.672
1584600833.774,48.340,27.832,28.809,-45.898,-15.137
1584600833.778,23.926,29.785,39.062,15.137,-18.066
1584600833.782,8.301,30.273,41.992,98.145,29.785
1584600833.786,18.555,23.926,40.039,61.523,14.648
1584600833.790,30.273,19.531,39.551,-33.691,-0.977
1584600833.794,10.254,18.555,40.527,-43.945,36.133
1584600833.798,30.762,18.555,47.363,72.266,10.742
1584600833.802,51.758,15.625,49.805,115.234,-12.207
1584600833.806,25.391,12.695,48.340,5.859,-2.930
1584600833.810,10.742,13.184,51.758,-71.289,38.574
1584600833.813,16.602,16.113,54.199,41.992,77.148
1584600833.817,38.574,15.137,58.105,126.953,38.574
1584600833.821,67.383,18.066,50.293,49.316,21.484
1584600833.825,48.828,19.531,41.016,-55.176,-0.488
1584600833.829,52.246,24.414,41.504,-3.418,2.441
1584600833.833,62.012,25.391,48.340,124.512,34.668
1584600833.837,21.973,11.719,54.199,87.402,-7.324
1584600833.841,-10.742,5.859,47.363,-41.504,-12.695
1584600833.845,-10.254,13.672,45.410,-27.832,26.367
1584600833.849,8.789,20.508,50.293,92.773,19.043
1584600833.852,15.137,17.578,49.316,95.703,53.223
1584600833.856,14.160,12.695,41.504,-9.277,57.129
1584600833.860,2.441,14.648,42.969,-54.688,2.441
1584600833.864,23.438,20.508,48.340,65.430,5.371
1584600833.868,41.504,20.508,52.246,128.418,55.176
1584600833.872,8.789,9.766,52.734,12.695,6.348
1584600833.876,-9.277,16.113,43.945,-73.242,3.906
1584600833.880,32.715,26.855,46.875,31.250,30.273
1584600833.884,48.828,24.414,47.363,121.094,75.684
1584600833.888,25.391,21.973,39.062,28.320,34.180
1584600833.892,29.297,20.996,40.039,-51.270,-5.371
1584600833.895,24.902,22.949,50.293,6.836,-23.926
1584600833.899,22.949,24.414,45.898,104.004,-41.504
1584600833.903,23.926,20.996,37.598,89.844,19.043
1584600833.907,12.695,20.508,33.203,-36.133,13.184
1584600833.911,18.066,24.414,34.180,-35.645,33.691
1584600833.915,37.598,27.344,36.621,87.402,32.715
1584600833.919,50.781,26.367,37.598,99.121,22.949
1584600833.923,33.691,26.367,37.598,-20.996,34.180
1584600833.927,13.184,27.344,35.645,-43.945,29.785
1584600833.931,49.805,23.926,41.504,62.012,27.832
1584600833.935,61.035,28.320,39.062,92.285,24.414
1584600833.938,54.199,30.273,38.086,24.414,1.953
1584600833.942,29.785,26.855,36.621,-60.547,-13.672
1584600833.946,14.648,33.203,32.227,18.066,-1.465
1584600833.950,42.969,34.180,37.598,121.094,13.184
1584600833.954,51.270,30.762,35.156,52.734,55.664
1584600833.958,43.457,28.809,31.738,-52.246,66.406
1584600833.962,27.832,30.762,42.480,-9.277,87.891
1584600833.966,21.484,33.691,45.410,104.492,74.707
1584600833.970,29.785,32.227,40.527,86.914,30.273
1584600833.974,25.879,28.809,45.410,-21.484,39.062
1584600833.977,10.742,27.344,45.410,-49.316,70.312
1584600833.981,24.902,35.645,41.992,58.594,67.383
1584600833.985,57.617,33.691,43.457,109.375,22.461
1584600833.989,30.762,24.902,43.457,-11.230,8.789
1584600833.993,21.484,30.273,43.945,-68.359,52.734
1584600833.997,55.176,38.086,44.922,61.523,74.219
1584600834.001,51.758,34.180,46.875,131.836,52.734
1584600834.005,21.973,27.344,48.340,37.109,45.898
1584600834.009,-1.953,26.367,46.387,-49.805,66.406
1584600834.013,5.859,30.273,44.922,14.648,-7.812
1584600834.017,23.926,26.367,52.246,112.793,5.371
1584600834.020,19.043,20.508,49.316,54.688,32.227
1584600834.024,12.207,29.297,38.086,-71.777,-32.715
1584600834.028,12.695,29.297,44.922,-22.461,5.859
1584600834.032,46.875,22.461,54.199,135.254,46.875
1584600834.036,65.430,27.344,47.852,118.652,34.668
1584600834.040,17.578,26.855,33.691,-42.969,29.297
1584600834.044,-7.812,26.855,33.691,-61.035,34.668
1584600834.048,19.043,32.715,39.062,66.406,76.172
1584600834.052,23.438,35.645,30.762,83.008,88.867
1584600834.056,2.441,29.785,28.320,-31.250,81.055
1584600834.060,-4.395,26.855,36.133,-83.496,41.992
1584600834.063,24.414,27.344,39.062,30.273,-9.766
1584600834.067,43.945,23.926,40.039,111.816,-4.395
1584600834.071,39.062,20.996,39.062,33.691,27.344
1584600834.075,22.461,21.973,34.668,-54.199,86.426
1584600834.079,28.320,25.879,37.598,13.672,20.996
1584600834.083,49.316,26.367,37.109,101.074,-21.973
1584600834.087,42.969,27.832,33.203,61.035,46.875
1584600834.091,33.203,28.320,35.645,-37.598,54.199
1584600834.095,23.438,30.273,35.156,-21.973,64.453
1584600834.099,38.086,31.250,39.062,100.586,31.250
1584600834.102,48.340,28.809,43.457,107.910,29.785
1584600834.106,22.949,22.461,43.457,-15.137,65.918
1584600834.110,9.277,28.320,41.016,-57.129,60.059
1584600834.114,27.832,34.180,42.969,66.406,41.992
1584600834.118,48.828,28.320,44.922,123.535,44.922
1584600834.122,47.363,28.320,37.109,21.973,33.203
1584600834.126,29.785,25.879,35.156,-54.199,-8.789
1584600834.130,25.879,24.414,44.434,43.457,-18.066
1584600834.134,46.875,28.809,45.410,147.461,14.160
1584600834.138,30.762,28.320,34.180,60.547,9.766
1584600834.142,4.395,28.809,27.832,-49.805,36.621
1584600834.145,22.461,29.297,35.645,11.719,70.801
1584600834.149,45.410,27.344,41.016,120.605,46.875
1584600834.153,41.504,26.855,36.621,89.844,42.480
1584600834.157,9.277,24.414,29.785,-44.922,-12.695
1584600834.161,9.277,24.414,32.227,-29.297,14.648
1584600834.165,43.457,28.809,35.645,102.539,61.035
1584600834.169,52.734,23.438,34.668,110.352,27.832
1584600834.173,44.922,9.766,44.922,20.996,-27.832
1584600834.177,51.270,10.742,49.805,-4.883,17.090
1584600834.181,62.500,30.762,32.715,92.773,52.734
1584600834.185,21.973,28.320,25.879,115.234,27.344
1584600834.188,-0.977,23.438,21.484,8.789,33.203
1584600834.192,4.883,32.227,14.160,-83.984,2.930
1584600834.196,20.996,36.621,18.066,-11.719,9.766
1584600834.200,54.199,39.062,15.625,75.684,9.277
1584600834.204,45.898,37.598,5.371,15.137,11.719
1584600834.208,2.930,33.203,3.906,-81.055,-4.883
1584600834.212,4.883,34.180,11.719,-33.203,1.465
1584600834.216,22.949,39.551,12.207,67.871,30.762
1584600834.220,12.207,40.527,5.859,47.363,29.297
1584600834.224,5.371,40.527,6.348,-55.664,20.020
1584600834.227,1.953,38.574,9.766,-56.641,-7.324
1584600834.231,12.207,39.062,10.742,64.453,13.672
1584600834.235,34.180,40.527,10.742,83.496,35.645
1584600834.239,23.438,33.691,13.184,-7.324,14.160
1584600834.243,5.371,28.320,17.090,-53.223,-6.836
1584600834.247,12.207,32.715,23.438,35.645,26.855
1584600834.251,34.668,38.086,21.484,107.422,41.504
1584600834.255,28.809,32.715,17.578,27.344,36.621
1584600834.259,13.672,33.203,22.461,-53.711,36.621
1584600834.263,24.902,38.086,24.414,-0.488,44.434
1584600834.267,31.738,42.480,19.531,92.285,34.668
1584600834.270,21.484,38.086,21.973,73.730,10.742
1584600834.274,16.602,32.227,25.879,-27.832,59.082
1584600834.278,28.809,35.156,26.367,-16.602,76.172
1584600834.282,43.945,34.668,25.391,85.449,3.906
1584600834.286,32.715,31.738,23.438,78.125,20.508
1584600834.290,9.277,23.926,29.785,-21.484,78.125
1584600834.294,20.020,27.832,24.902,-25.391,78.613
1584600834.298,49.316,38.574,21.484,90.820,70.801
1584600834.302,58.594,36.133,26.367,116.699,70.312
1584600834.306,49.316,32.227,20.996,7.812,75.195
1584600834.310,37.109,33.691,18.066,-56.641,69.824
1584600834.313,52.734,39.062,23.438,41.016,-0.977
1584600834.317,47.363,39.062,24.902,119.141,20.020
1584600834.321,25.879,31.250,22.949,38.574,40.039
