timestamps,TP9,AF7,AF8,TP10,Right AUX
1584600775.220,48.340,26.855,25.879,176.270,62.012
1584600775.224,33.691,34.180,29.785,168.457,55.664
1584600775.227,14.648,23.926,31.738,-80.566,35.645
1584600775.231,20.508,15.137,22.949,-136.719,0.000
1584600775.235,49.805,32.227,32.227,109.863,6.836
1584600775.239,52.246,34.668,36.133,201.172,8.301
1584600775.243,21.973,21.484,25.391,-20.020,-17.090
1584600775.247,8.789,13.672,21.484,-152.832,13.184
1584600775.251,38.086,28.809,27.344,47.852,31.738
1584600775.255,48.828,38.574,25.391,211.914,-9.766
1584600775.259,20.020,26.367,22.949,54.199,-16.113
1584600775.263,0.977,20.508,24.414,-149.414,24.414
1584600775.267,20.508,31.738,23.926,-23.926,32.715
1584600775.270,42.480,38.086,26.367,195.312,3.906
1584600775.274,30.762,28.320,22.461,110.352,15.625
1584600775.278,6.348,25.879,20.996,-127.441,57.617
1584600775.282,18.555,39.551,33.203,-83.008,11.719
1584600775.286,47.363,36.133,38.086,168.457,-27.832
1584600775.290,39.551,20.996,28.809,168.945,-44.434
1584600775.294,14.160,18.066,23.438,-78.125,-32.715
1584600775.298,15.137,25.391,29.297,-131.836,22.949
1584600775.302,47.852,31.738,30.762,107.910,22.461
1584600775.306,53.711,21.973,26.855,199.707,16.602
1584600775.310,22.949,13.184,25.879,-8.789,45.410
1584600775.313,4.395,23.926,27.832,-154.297,6.348
1584600775.317,27.344,42.480,32.715,29.785,-1.465
1584600775.321,53.223,39.062,35.645,209.473,62.012
1584600775.325,30.762,26.855,29.297,62.012,28.809
1584600775.329,-5.371,26.855,26.367,-151.855,-10.254
1584600775.333,4.395,28.809,24.902,-50.293,6.836
1584600775.337,45.898,33.691,21.973,179.199,0.488
1584600775.341,48.828,31.250,25.879,125.488,7.812
1584600775.345,18.555,22.949,23.438,-116.699,9.766
1584600775.349,20.020,23.438,27.832,-105.469,11.230
1584600775.352,42.480,24.414,36.133,144.531,12.695
1584600775.356,31.738,25.391,31.738,177.734,88.867
1584600775.360,14.160,36.621,34.668,-48.828,75.195
1584600775.364,11.719,38.574,37.598,-127.930,9.766
1584600775.368,37.109,27.344,25.879,80.566,30.273
1584600775.372,62.500,29.785,20.996,198.242,33.203
1584600775.376,32.715,29.785,18.066,6.836,42.480
1584600775.380,3.906,25.391,14.160,-155.273,52.734
1584600775.384,54.688,30.273,22.949,41.992,87.402
1584600775.388,80.078,27.832,36.621,241.211,55.176
1584600775.392,23.438,17.090,34.180,76.172,-0.977
1584600775.395,-23.438,12.695,31.250,-163.574,-5.371
1584600775.399,-0.488,17.578,34.180,-69.824,30.762
1584600775.403,41.504,22.949,32.715,176.758,20.508
1584600775.407,23.438,20.020,31.738,143.066,19.531
1584600775.411,-6.836,16.113,37.598,-96.191,22.949
1584600775.415,2.441,19.043,42.480,-96.191,2.441
1584600775.419,29.297,21.484,39.551,139.648,30.273
1584600775.423,21.973,16.602,32.227,183.105,19.043
1584600775.427,-10.742,11.719,24.902,-41.504,12.207
1584600775.431,-8.789,10.254,27.832,-146.973,14.160
1584600775.435,34.180,18.555,35.156,62.500,8.789
1584600775.438,48.340,27.832,35.645,205.566,32.227
1584600775.442,17.578,17.090,28.320,28.320,23.438
1584600775.446,5.371,9.766,30.273,-153.809,15.137
1584600775.450,38.086,30.273,43.457,7.812,32.227
1584600775.454,56.152,37.109,44.922,214.844,38.574
1584600775.458,18.555,20.996,32.715,96.680,32.715
1584600775.462,-2.930,22.949,32.227,-133.789,-1.953
1584600775.466,24.414,29.785,41.016,-66.406,8.301
1584600775.470,55.176,28.809,35.156,173.340,2.930
1584600775.474,39.551,21.484,22.949,147.949,-26.855
1584600775.477,-5.859,2.930,16.602,-101.074,-4.395
1584600775.481,10.254,7.812,22.949,-132.324,63.965
1584600775.485,53.223,31.250,29.785,111.328,93.750
1584600775.489,43.457,33.203,29.297,192.383,41.016
1584600775.493,6.348,18.066,29.297,-18.555,46.387
1584600775.497,3.418,19.043,34.180,-136.719,55.176
1584600775.501,28.809,24.902,32.715,57.129,26.367
1584600775.505,51.758,23.438,24.902,205.078,61.035
1584600775.509,39.551,19.531,22.461,41.992,44.434
1584600775.513,7.324,22.461,26.855,-156.738,-4.395
1584600775.517,18.066,33.691,25.391,-26.855,-6.836
1584600775.520,41.016,33.203,26.367,194.824,12.695
1584600775.524,37.598,22.461,30.762,114.746,49.805
1584600775.528,7.812,10.742,21.484,-126.953,25.391
1584600775.532,11.230,24.902,26.855,-89.355,-25.391
1584600775.536,36.621,38.574,38.574,170.410,14.160
1584600775.540,41.016,33.691,34.668,184.570,47.852
1584600775.544,16.602,23.926,30.762,-60.547,47.852
1584600775.548,6.836,24.414,29.297,-131.348,22.461
1584600775.552,44.434,36.621,32.227,99.121,37.109
1584600775.556,61.035,36.133,33.691,201.172,67.871
1584600775.560,27.344,30.762,34.180,-1.465,49.805
1584600775.563,1.953,19.531,32.227,-151.855,69.336
1584600775.567,17.090,13.672,30.273,23.438,62.500
1584600775.571,44.922,25.391,31.250,205.566,49.316
1584600775.575,35.645,25.879,28.809,62.988,40.527
1584600775.579,7.324,22.949,25.391,-158.691,12.695
1584600775.583,29.297,29.297,30.762,-49.316,-8.301
1584600775.587,67.383,35.156,36.621,188.477,-4.883
1584600775.591,59.082,40.039,40.039,133.301,-8.789
1584600775.595,18.555,34.668,36.133,-110.840,-19.043
1584600775.599,8.301,27.344,28.809,-96.680,18.555
1584600775.602,38.086,31.738,34.180,152.832,69.824
1584600775.606,53.711,39.062,41.016,189.453,20.020
1584600775.610,18.555,28.320,34.180,-49.316,56.641
1584600775.614,-3.906,20.508,24.414,-145.996,69.824
1584600775.618,34.668,27.344,30.273,82.520,79.102
1584600775.622,53.223,26.367,31.738,203.125,119.141
1584600775.626,41.016,19.043,29.297,8.789,17.578
1584600775.630,19.043,14.648,34.668,-145.020,-53.711
1584600775.634,19.531,23.438,34.180,22.949,-30.762
1584600775.638,48.340,32.227,31.738,222.168,9.766
1584600775.642,40.527,29.297,29.785,103.516,41.016
1584600775.645,1.465,24.414,20.508,-146.484,26.855
1584600775.649,9.277,37.598,27.832,-67.383,-4.883
1584600775.653,44.922,44.922,31.738,170.410,7.812
1584600775.657,34.180,30.273,17.090,125.488,47.363
1584600775.661,2.930,26.367,12.207,-114.258,43.457
1584600775.665,7.324,29.785,13.672,-134.277,25.879
1584600775.669,44.434,33.691,18.066,114.258,31.738
1584600775.673,55.176,33.203,21.973,182.617,18.555
1584600775.677,24.414,26.367,20.508,-40.527,32.715
1584600775.681,0.488,26.367,17.578,-143.066,57.617
1584600775.685,30.762,27.344,24.414,65.918,13.672
1584600775.688,52.246,19.531,28.809,204.102,20.020
1584600775.692,31.250,21.484,27.344,29.297,16.113
1584600775.696,6.348,26.367,25.391,-151.855,32.227
1584600775.700,27.344,31.250,24.902,-6.348,74.219
1584600775.704,52.246,38.086,27.344,204.102,53.711
1584600775.708,30.273,30.273,28.809,104.004,58.105
1584600775.712,-1.465,19.531,27.344,-136.230,37.109
1584600775.716,18.555,30.762,31.250,-74.707,-23.438
1584600775.720,56.152,39.551,37.598,175.781,4.395
1584600775.724,56.641,37.109,34.668,159.180,73.242
1584600775.727,23.926,28.320,25.391,-92.773,45.410
1584600775.731,1.953,21.484,24.902,-128.906,-9.766
1584600775.735,23.926,26.855,32.715,116.699,-2.930
1584600775.739,37.598,27.344,36.133,198.730,50.781
1584600775.743,16.602,21.973,31.738,-17.578,54.688
1584600775.747,6.836,20.508,26.855,-147.461,73.730
1584600775.751,33.203,24.414,31.250,51.758,33.203
1584600775.755,55.664,32.227,36.621,214.355,3.418
1584600775.759,38.086,31.738,35.645,54.199,45.410
1584600775.763,12.207,17.578,27.832,-148.926,11.230
1584600775.767,33.691,23.438,28.320,-19.043,-39.062
1584600775.770,62.500,34.180,38.574,201.660,-31.250
1584600775.774,46.875,32.227,27.832,108.887,3.906
1584600775.778,-1.465,27.832,16.113,-131.836,26.367
1584600775.782,4.883,32.715,24.902,-90.820,4.883
1584600775.786,62.012,42.480,37.109,165.039,18.555
1584600775.790,67.383,35.645,32.227,176.270,49.316
1584600775.794,16.602,22.949,24.414,-63.965,56.641
1584600775.798,3.418,28.320,26.367,-124.023,59.570
1584600775.802,40.527,39.062,33.691,107.422,40.527
1584600775.806,55.176,40.527,38.574,209.961,84.473
1584600775.810,23.926,33.691,32.715,-0.977,85.938
1584600775.813,-13.184,21.484,25.879,-159.180,67.383
1584600775.817,9.277,24.414,28.320,23.438,65.918
1584600775.821,47.852,31.250,33.203,205.078,32.715
1584600775.825,32.227,16.113,29.785,60.547,5.859
1584600775.829,-5.371,10.254,25.879,-155.762,-1.465
1584600775.833,19.043,25.391,32.227,-47.363,9.277
1584600775.837,63.477,35.156,35.156,189.453,75.195
1584600775.841,50.293,34.668,30.762,134.277,46.387
1584600775.845,-11.230,23.438,26.367,-122.559,10.254
1584600775.849,-14.648,21.484,29.785,-116.211,83.008
1584600775.852,35.156,32.227,37.598,143.555,55.664
1584600775.856,39.062,32.227,38.574,180.664,62.012
1584600775.860,9.766,24.414,33.691,-60.547,8.789
1584600775.864,-1.953,25.879,28.320,-152.344,-18.066
1584600775.868,36.621,39.062,38.086,83.496,20.996
1584600775.872,63.965,40.039,43.457,209.961,-1.465
1584600775.876,33.691,22.461,34.668,8.301,18.066
1584600775.880,2.441,16.602,34.668,-156.250,36.621
1584600775.884,16.602,25.879,37.598,18.066,56.641
1584600775.888,51.270,27.832,38.574,225.586,55.176
1584600775.892,41.504,19.531,32.715,100.586,19.043
1584600775.895,1.465,20.020,21.973,-146.973,16.602
1584600775.899,15.625,38.086,29.297,-62.012,45.898
1584600775.903,52.246,39.062,33.691,181.641,12.207
1584600775.907,40.527,23.926,23.926,128.418,11.230
1584600775.911,2.441,30.273,18.066,-119.629,17.090
1584600775.915,6.836,40.039,16.602,-127.441,-4.883
1584600775.919,43.945,38.574,24.902,118.164,36.621
1584600775.923,48.828,27.832,22.949,167.969,63.477
1584600775.927,29.785,21.973,20.996,-60.547,41.016
1584600775.931,26.367,21.484,28.809,-159.668,-5.859
1584600775.935,36.621,28.809,33.691,62.500,-8.789
1584600775.938,49.316,40.527,34.180,206.543,24.414
1584600775.942,31.738,32.227,33.691,31.738,59.082
1584600775.946,3.906,23.926,30.273,-152.832,52.734
1584600775.950,37.109,31.250,35.156,-8.301,-12.695
1584600775.954,69.336,36.621,44.922,206.055,0.977
1584600775.958,38.574,31.250,42.480,112.305,-14.648
1584600775.962,4.883,23.438,32.715,-130.859,-34.668
1584600775.966,2.930,22.949,24.902,-83.984,43.457
1584600775.970,35.156,26.367,27.832,167.969,16.602
1584600775.974,46.387,30.273,36.133,166.504,0.488
1584600775.977,10.742,22.949,35.156,-83.496,26.367
1584600775.981,0.977,19.531,28.320,-127.930,-33.203
1584600775.985,46.387,36.133,33.203,113.770,-58.594
1584600775.989,56.152,36.621,35.156,190.918,8.789
1584600775.993,15.137,21.973,20.508,-30.273,65.918
1584600775.997,10.742,22.949,19.531,-161.133,-10.742
1584600776.001,44.922,37.109,32.227,52.734,-21.484
1584600776.005,65.918,36.621,34.668,220.215,11.230
1584600776.009,36.133,23.438,25.391,51.758,79.590
1584600776.013,-4.395,20.508,15.625,-156.250,75.195
1584600776.017,23.926,30.762,20.508,-27.344,10.254
1584600776.020,59.082,32.227,29.297,193.359,14.160
1584600776.024,38.086,19.043,35.645,108.887,44.922
1584600776.028,7.324,14.160,26.855,-128.906,46.875
1584600776.032,23.438,26.855,19.531,-94.238,-26.367
1584600776.036,55.176,39.551,31.250,159.180,-16.602
1584600776.040,51.758,29.785,25.391,164.062,28.320
1584600776.044,12.695,12.207,15.137,-82.520,30.762
1584600776.048,-5.371,17.578,18.555,-135.742,38.086
1584600776.052,18.066,30.273,25.391,99.121,48.340
1584600776.056,32.715,21.973,27.344,200.195,83.496
1584600776.060,15.137,18.555,23.926,-5.371,36.621
1584600776.063,8.301,28.320,23.926,-153.320,-11.230
1584600776.067,38.574,33.691,25.879,31.250,79.102
1584600776.071,52.246,35.645,25.879,204.590,57.617
1584600776.075,39.551,35.645,31.250,69.336,1.465
1584600776.079,24.414,26.855,28.809,-140.137,36.133
1584600776.083,28.320,16.113,24.902,-43.457,0.977
1584600776.087,46.875,20.996,27.832,189.453,28.809
1584600776.091,43.945,29.785,26.367,133.789,74.219
1584600776.095,5.371,19.043,21.484,-112.793,13.184
1584600776.099,5.371,17.578,20.508,-99.609,30.762
1584600776.102,41.016,31.738,25.391,152.344,14.160
1584600776.106,44.434,31.738,27.832,185.059,22.461
1584600776.110,20.020,19.043,22.949,-50.781,31.738
1584600776.114,22.949,26.855,29.297,-123.535,-31.738
1584600776.118,69.336,47.852,42.969,109.375,29.785
1584600776.122,68.359,41.992,37.109,219.238,50.293
1584600776.126,17.090,20.996,29.785,7.812,0.488
1584600776.130,-3.906,17.090,29.297,-163.574,4.883
1584600776.134,23.926,28.320,29.785,9.277,10.254
1584600776.138,46.875,28.320,31.738,205.078,5.859
1584600776.142,29.785,23.438,25.391,82.031,15.137
1584600776.145,-10.254,24.414,22.949,-143.555,1.465
1584600776.149,14.648,35.156,34.668,-51.758,54.688
1584600776.153,58.105,40.039,38.574,189.453,31.250
1584600776.157,43.945,33.203,33.691,146.484,14.160
1584600776.161,11.719,29.297,29.785,-102.051,35.645
1584600776.165,14.160,22.461,24.902,-122.559,66.406
1584600776.169,43.457,28.809,32.227,127.930,87.402
1584600776.173,43.945,28.809,30.273,186.035,57.617
1584600776.177,16.113,23.438,22.461,-43.945,26.367
1584600776.181,13.184,28.320,30.273,-148.438,12.695
1584600776.185,49.316,36.621,38.086,71.777,29.785
1584600776.188,61.035,42.480,36.133,216.797,23.926
1584600776.192,27.832,33.691,35.156,32.227,0.000
1584600776.196,4.883,22.461,32.715,-158.203,-10.742
1584600776.200,26.855,30.762,32.715,-12.207,-10.254
1584600776.204,48.828,44.922,39.551,202.148,5.371
1584600776.208,31.250,32.715,32.227,91.309,-18.066
1584600776.212,-0.977,12.695,20.020,-157.227,-39.551
1584600776.216,10.254,12.695,21.973,-89.355,-14.648
1584600776.220,47.363,19.531,34.180,170.410,16.113
1584600776.224,46.387,24.902,36.621,163.574,28.809
1584600776.227,13.672,36.133,31.250,-82.031,34.180
1584600776.231,5.371,36.133,30.273,-123.047,19.043
1584600776.235,27.832,27.344,32.227,112.305,-57.129
1584600776.239,26.367,26.367,35.156,186.035,-5.859
1584600776.243,4.395,26.855,32.715,-32.227,14.648
1584600776.247,2.930,29.785,36.621,-153.809,-2.930
1584600776.251,24.902,31.250,39.062,44.922,26.367
1584600776.255,39.062,30.273,32.227,201.172,32.715
1584600776.259,20.996,21.973,29.297,39.551,55.176
1584600776.263,-3.906,19.043,32.715,-157.227,39.551
1584600776.267,24.414,29.785,40.039,-17.090,17.578
1584600776.270,58.105,29.297,35.156,200.195,16.113
1584600776.274,40.039,17.090,27.344,107.422,-23.926
1584600776.278,4.883,16.602,28.320,-125.977,-54.688
1584600776.282,13.184,25.391,37.109,-86.426,-7.324
1584600776.286,48.828,29.785,36.133,156.738,28.320
1584600776.290,51.758,35.156,36.133,167.480,58.105
1584600776.294,33.203,34.180,42.969,-62.988,24.902
1584600776.298,30.273,28.809,39.062,-125.488,1.953
1584600776.302,55.176,31.250,35.156,106.445,89.844
1584600776.306,49.316,27.344,34.668,209.473,75.684
1584600776.310,4.395,17.578,27.344,-4.395,-6.836
1584600776.313,-3.418,20.020,23.926,-154.785,-14.648
1584600776.317,32.227,29.297,27.344,35.156,15.137
1584600776.321,59.082,38.574,28.809,217.285,21.484
1584600776.325,28.809,31.738,29.297,67.383,-57.129
1584600776.329,-3.418,25.879,33.203,-149.902,5.859
1584600776.333,13.184,29.297,33.203,-39.551,39.062
1584600776.337,55.664,37.109,35.645,201.660,6.836
1584600776.341,66.406,43.457,40.527,158.203,36.621
1584600776.345,23.926,28.320,32.227,-93.262,66.895
1584600776.349,3.906,23.438,25.391,-105.469,38.574
1584600776.352,21.484,31.738,23.926,133.301,35.645
1584600776.356,25.391,29.785,26.855,170.410,30.762
1584600776.360,-5.859,16.602,26.855,-66.406,-14.160
1584600776.364,-7.324,17.090,24.414,-147.461,31.250
1584600776.368,50.293,28.809,32.227,85.938,109.375
1584600776.372,70.801,24.414,36.621,203.125,91.797
1584600776.376,28.809,26.855,39.062,15.625,29.785
1584600776.380,-3.418,27.344,37.109,-144.531,39.551
1584600776.384,24.902,29.785,34.668,20.020,6.348
1584600776.388,62.988,41.992,40.039,221.191,-17.090
1584600776.392,45.898,38.574,36.621,96.191,8.789
1584600776.395,8.301,20.020,26.367,-145.996,-6.348
1584600776.399,15.625,14.160,22.461,-68.848,25.391
1584600776.403,31.738,28.320,24.414,176.270,67.871
1584600776.407,25.879,28.320,24.902,138.184,19.531
1584600776.411,6.348,21.973,28.809,-105.957,9.766
1584600776.415,11.719,23.438,35.645,-116.699,-1.465
1584600776.419,49.805,36.133,39.062,132.324,2.441
1584600776.423,54.688,40.039,40.039,191.895,61.523
1584600776.427,16.113,27.344,34.668,-41.504,70.312
1584600776.431,4.395,23.926,29.785,-151.367,1.465
1584600776.435,35.156,32.715,36.621,67.383,57.129
1584600776.438,59.082,35.156,40.527,214.844,58.594
1584600776.442,43.457,27.344,36.621,35.645,0.000
1584600776.446,12.695,19.043,31.250,-160.156,-18.066
1584600776.450,28.320,24.414,29.297,-16.602,-18.066
1584600776.454,54.688,32.227,31.738,198.242,20.020
1584600776.458,37.109,25.879,31.250,99.121,72.754
1584600776.462,6.836,22.949,29.785,-139.160,31.738
1584600776.466,28.809,28.320,36.133,-72.266,0.488
1584600776.470,50.781,30.762,36.621,181.641,27.832
1584600776.474,34.180,24.414,27.344,154.785,-16.602
1584600776.477,5.371,16.602,23.926,-91.309,33.203
1584600776.481,2.441,20.020,26.367,-123.535,67.383
1584600776.485,34.668,28.809,29.297,113.281,19.043
1584600776.489,56.641,34.668,34.668,188.477,-49.316
1584600776.493,35.156,27.832,35.645,-29.297,-31.738
1584600776.497,3.418,15.625,28.320,-160.645,45.898
1584600776.501,22.461,22.461,31.738,42.969,16.602
1584600776.505,46.875,27.344,37.109,204.102,32.715
1584600776.509,19.043,22.461,28.809,41.992,31.250
1584600776.513,-13.184,19.043,24.414,-156.738,-28.320
1584600776.517,18.555,20.996,29.785,-25.879,26.367
1584600776.520,48.828,27.832,27.832,204.590,57.617
1584600776.524,31.250,24.902,26.367,123.535,40.527
1584600776.528,4.395,19.043,24.902,-126.465,67.871
1584600776.532,25.391,28.320,26.367,-85.938,21.973
1584600776.536,75.195,31.738,31.738,163.086,-24.414
1584600776.540,54.688,21.973,28.809,164.551,31.250
1584600776.544,8.789,27.344,29.785,-72.266,44.922
1584600776.548,9.766,35.645,33.203,-124.023,58.105
1584600776.552,42.480,28.320,27.344,104.980,47.363
1584600776.556,51.758,21.484,19.043,197.754,33.691
1584600776.560,24.902,22.461,16.113,-8.789,48.340
1584600776.563,12.695,21.973,20.020,-157.715,59.570
1584600776.567,46.387,28.320,30.273,29.297,47.852
1584600776.571,66.406,35.156,34.180,212.891,29.297
1584600776.575,39.062,28.320,24.902,69.336,18.066
1584600776.579,9.766,18.066,18.066,-152.344,25.391
1584600776.583,27.344,21.973,27.832,-39.551,40.039
1584600776.587,53.711,28.320,33.203,195.312,20.508
1584600776.591,33.203,26.855,30.762,130.371,35.156
1584600776.595,0.000,14.160,25.391,-119.629,34.180
1584600776.599,4.395,16.602,24.902,-104.492,42.480
1584600776.602,46.387,36.621,36.133,150.391,25.391
1584600776.606,52.734,30.273,31.250,171.875,48.340
1584600776.610,18.066,17.090,19.531,-75.684,75.195
1584600776.614,5.859,17.578,21.484,-163.086,19.531
1584600776.618,29.297,27.344,29.297,73.242,-18.066
1584600776.622,34.668,31.738,28.809,205.078,45.898
1584600776.626,14.160,25.879,23.438,9.766,62.012
1584600776.630,3.418,20.508,20.996,-154.785,14.160
1584600776.634,36.621,29.785,33.691,21.484,30.273
1584600776.638,55.176,29.297,43.457,213.867,27.832
1584600776.642,17.578,18.555,34.668,70.312,27.832
1584600776.645,-21.973,14.648,27.344,-162.109,4.883
1584600776.649,0.977,24.902,31.250,-65.430,12.207
1584600776.653,39.062,25.879,37.109,182.129,38.086
1584600776.657,31.738,18.066,38.574,147.949,56.152
1584600776.661,20.020,30.273,39.551,-96.191,26.855
1584600776.665,18.555,31.250,32.227,-111.328,-8.301
1584600776.669,41.504,22.949,28.809,130.859,-4.395
1584600776.673,46.875,22.461,32.715,187.500,-11.719
1584600776.677,19.043,19.043,32.715,-40.039,5.371
1584600776.681,11.719,16.602,30.273,-146.973,31.738
1584600776.685,36.621,17.090,26.855,71.777,37.109
1584600776.688,56.152,23.926,27.832,212.402,2.930
1584600776.692,30.762,24.902,27.832,33.691,37.598
1584600776.696,3.906,21.973,25.879,-150.879,86.426
1584600776.700,29.297,27.832,31.250,-0.488,55.176
1584600776.704,52.246,29.785,30.762,205.566,19.043
1584600776.708,25.879,24.414,24.902,102.051,59.570
1584600776.712,-4.883,15.625,25.879,-135.742,34.668
1584600776.716,15.625,18.555,32.715,-70.801,1.953
1584600776.720,53.223,34.180,38.086,185.059,63.965
1584600776.724,49.316,37.598,28.809,162.109,26.367
1584600776.727,14.648,24.414,16.113,-96.680,-7.812
1584600776.731,12.207,22.461,17.578,-138.184,12.695
1584600776.735,45.410,33.203,27.344,109.863,51.270
1584600776.739,50.781,32.227,28.320,196.289,83.984
1584600776.743,22.949,23.926,23.438,-24.414,53.223
1584600776.747,3.418,23.438,20.996,-156.250,0.000
1584600776.751,31.738,29.785,26.367,48.340,11.719
1584600776.755,59.570,28.320,28.320,214.355,81.055
1584600776.759,43.457,21.973,23.926,53.223,71.289
1584600776.763,12.207,22.461,24.414,-148.438,48.340
1584600776.767,20.508,30.762,37.109,-5.859,52.246
1584600776.770,50.781,38.574,42.480,220.215,30.762
1584600776.774,37.109,24.414,29.297,124.023,60.547
1584600776.778,7.812,12.207,18.066,-134.766,53.711
1584600776.782,15.625,25.879,22.949,-94.727,7.812
1584600776.786,36.621,37.598,28.809,166.504,-18.066
1584600776.790,32.227,31.250,25.391,170.410,6.348
1584600776.794,8.789,18.066,22.461,-77.637,0.977
1584600776.798,13.184,22.461,27.344,-136.230,-31.738
1584600776.802,52.246,35.645,29.785,104.004,6.348
1584600776.806,64.453,37.598,29.785,205.078,-4.395
1584600776.810,37.109,30.762,28.809,-5.371,8.301
1584600776.813,12.695,21.484,26.855,-155.762,25.879
1584600776.817,33.203,22.949,30.273,30.273,7.812
1584600776.821,53.711,37.109,37.109,217.285,45.410
1584600776.825,35.645,34.180,30.273,69.336,98.145
1584600776.829,5.859,20.996,21.973,-151.855,91.797
1584600776.833,14.160,20.020,21.484,-49.316,53.711
1584600776.837,44.922,19.531,23.926,178.711,41.504
1584600776.841,39.062,16.113,25.391,122.070,-13.184
1584600776.845,5.859,20.020,22.949,-117.676,-24.902
1584600776.849,-1.465,23.926,23.438,-98.145,35.645
1584600776.852,43.945,27.344,32.227,169.434,5.371
1584600776.856,61.523,29.297,35.645,208.008,40.039
1584600776.860,4.883,22.461,25.879,-59.570,76.660
1584600776.864,-14.160,16.602,15.625,-164.062,58.105
1584600776.868,35.645,32.715,23.926,70.801,53.223
1584600776.872,51.270,37.109,29.785,196.289,33.691
1584600776.876,3.906,20.996,16.113,-0.977,20.996
1584600776.880,-17.578,19.043,15.137,-170.898,34.668
1584600776.884,21.484,30.273,23.926,-4.883,25.391
1584600776.888,65.918,34.180,27.344,198.730,8.301
1584600776.892,56.641,23.926,23.926,85.449,-15.625
1584600776.895,13.184,18.066,28.320,-141.113,11.230
1584600776.899,13.184,27.832,32.715,-59.570,35.645
1584600776.903,49.805,36.621,31.250,184.082,-0.488
1584600776.907,49.805,27.832,32.227,149.414,26.367
1584600776.911,8.301,15.137,26.367,-110.840,7.324
1584600776.915,4.883,20.020,28.320,-122.070,-27.832
1584600776.919,51.758,32.715,38.086,137.695,56.641
1584600776.923,54.199,34.668,33.691,189.453,35.156
1584600776.927,7.324,23.438,23.926,-46.387,-52.734
1584600776.931,-6.348,14.160,21.484,-153.320,-18.066
1584600776.935,31.738,21.973,22.949,63.965,32.227
1584600776.938,50.781,24.902,26.367,207.520,42.969
1584600776.942,19.531,20.508,28.809,24.902,2.930
1584600776.946,-4.395,27.832,30.762,-161.133,-29.785
1584600776.950,35.645,38.574,40.039,0.488,35.156
1584600776.954,73.242,38.574,41.992,207.520,38.574
1584600776.958,46.387,21.973,32.715,98.633,-5.371
1584600776.962,9.277,8.789,30.762,-134.766,53.711
1584600776.966,20.996,26.855,39.551,-69.336,48.828
1584600776.970,50.781,38.574,46.875,181.152,-15.625
1584600776.974,40.039,28.809,38.574,165.039,-15.137
1584600776.977,1.953,20.996,28.320,-90.332,33.691
1584600776.981,7.324,17.578,27.344,-132.324,78.125
1584600776.985,48.340,21.973,31.738,112.793,20.020
1584600776.989,67.871,29.297,36.133,195.312,-4.395
1584600776.993,44.922,32.715,36.621,-19.043,37.598
1584600776.997,11.230,27.832,31.738,-149.414,18.066
1584600777.001,33.203,35.645,35.156,55.176,4.883
1584600777.005,55.176,42.969,35.645,213.379,23.438
1584600777.009,38.086,32.227,33.691,52.246,31.250
1584600777.013,20.020,25.879,35.156,-140.625,-1.953
1584600777.017,30.762,31.738,31.738,-17.090,-14.648
1584600777.020,49.805,29.297,29.785,198.242,10.742
1584600777.024,29.297,21.484,27.832,111.328,26.367
1584600777.028,1.953,11.719,23.438,-129.883,-13.672
1584600777.032,19.043,19.531,27.344,-93.262,3.906
1584600777.036,54.688,38.086,35.156,156.250,62.500
1584600777.040,55.664,38.086,35.156,174.316,69.824
1584600777.044,22.949,27.832,25.879,-67.871,20.020
1584600777.048,4.883,20.996,22.461,-137.695,34.180
1584600777.052,28.320,26.367,30.273,104.980,75.195
1584600777.056,43.945,24.414,30.273,205.566,83.984
1584600777.060,19.043,22.949,27.344,-10.254,62.012
1584600777.063,6.836,26.855,31.250,-151.855,2.930
1584600777.067,18.555,27.832,30.273,33.203,31.250
1584600777.071,30.273,33.203,26.367,208.496,33.203
1584600777.075,26.367,28.809,27.832,62.012,14.648
1584600777.079,13.184,26.855,32.227,-155.762,23.926
1584600777.083,26.367,31.250,36.133,-38.574,2.441
1584600777.087,57.617,27.832,37.598,207.031,45.410
1584600777.091,56.152,23.926,31.738,145.508,55.176
1584600777.095,6.836,20.996,24.902,-120.117,31.250
1584600777.099,1.953,23.926,22.461,-113.281,31.250
1584600777.102,48.340,33.203,25.879,143.066,55.664
1584600777.106,51.270,39.062,31.250,183.594,27.832
1584600777.110,12.695,30.762,26.367,-58.594,4.883
1584600777.114,3.418,29.785,28.320,-145.508,43.945
1584600777.118,32.715,28.809,33.203,88.867,55.664
1584600777.122,48.340,23.926,26.367,207.031,22.949
1584600777.126,32.715,28.320,23.926,10.742,18.555
1584600777.130,20.508,30.273,23.438,-153.809,40.527
1584600777.134,43.457,33.203,22.949,12.207,60.547
1584600777.138,53.711,31.250,23.926,203.125,49.316
1584600777.142,28.809,27.344,21.484,80.078,5.859
1584600777.145,0.000,21.484,22.461,-144.531,-29.297
1584600777.149,18.555,23.926,30.273,-57.129,-1.465
1584600777.153,61.523,42.480,41.504,193.848,46.387
1584600777.157,53.223,45.898,43.457,158.691,15.625
1584600777.161,16.113,27.344,28.320,-100.098,13.672
1584600777.165,19.531,20.996,19.531,-125.977,44.434
1584600777.169,53.223,36.133,23.926,125.977,25.391
1584600777.173,47.852,35.156,28.320,194.824,20.996
1584600777.177,7.324,19.531,23.438,-41.504,25.879
1584600777.181,4.883,20.996,21.484,-153.320,42.480
1584600777.185,22.949,28.809,25.391,63.965,68.359
1584600777.188,32.227,31.738,26.367,207.031,49.316
1584600777.192,24.414,27.344,25.391,30.762,27.832
1584600777.196,22.949,26.855,25.879,-151.855,51.758
1584600777.200,50.781,34.668,35.156,1.953,45.898
1584600777.204,66.895,37.109,38.574,219.238,49.316
1584600777.208,45.410,29.297,27.832,109.375,77.637
1584600777.212,5.371,24.902,19.531,-146.973,42.969
1584600777.216,24.902,30.762,21.973,-83.984,8.301
1584600777.220,60.547,33.691,29.297,178.711,52.246
1584600777.224,40.527,24.902,24.902,159.180,51.270
1584600777.227,16.113,22.461,21.973,-84.473,37.598
1584600777.231,35.645,34.668,30.762,-118.164,40.039
1584600777.235,65.430,41.504,35.645,121.582,64.453
1584600777.239,53.711,31.738,31.738,203.125,25.391
1584600777.243,17.578,20.996,26.367,-20.020,-6.348
1584600777.247,12.207,26.367,28.809,-153.320,28.320
1584600777.251,51.758,37.598,38.086,53.711,-5.859
1584600777.255,58.105,34.668,36.621,212.891,-47.363
1584600777.259,12.207,23.438,31.738,46.875,-37.598
1584600777.263,-20.508,17.090,26.855,-156.738,-20.020
1584600777.267,17.578,27.832,29.785,-23.438,-11.719
1584600777.270,64.453,37.598,35.156,196.289,33.203
1584600777.274,47.363,32.715,30.762,107.910,32.715
1584600777.278,2.441,20.996,27.832,-125.977,-11.230
1584600777.282,17.090,22.949,35.156,-84.473,-13.672
1584600777.286,53.711,28.320,37.109,161.133,44.922
1584600777.290,44.434,27.832,33.203,164.062,113.281
1584600777.294,11.719,25.391,32.227,-79.102,34.180
1584600777.298,4.883,23.926,34.180,-135.742,-23.926
1584600777.302,34.668,34.668,43.945,109.375,36.621
1584600777.306,48.340,35.645,42.969,218.750,70.312
1584600777.310,25.879,28.320,33.691,10.254,76.172
1584600777.313,3.418,22.949,35.156,-150.391,41.016
1584600777.317,22.461,21.973,37.109,24.414,27.344
1584600777.321,44.922,28.320,30.762,202.637,18.066
1584600777.325,24.902,22.461,25.391,59.570,-21.484
1584600777.329,10.254,19.043,30.762,-152.344,9.277
1584600777.333,38.086,26.855,34.180,-47.852,69.336
1584600777.337,62.500,32.227,30.273,183.105,39.062
1584600777.341,34.180,25.879,29.297,128.418,15.137
1584600777.345,0.000,18.555,30.273,-115.234,11.719
1584600777.349,14.648,25.391,34.180,-101.074,26.855
1584600777.352,53.711,33.203,39.551,144.531,29.785
1584600777.356,55.664,30.762,37.109,179.199,5.859
1584600777.360,14.160,25.879,31.738,-54.688,33.691
1584600777.364,3.418,27.832,30.273,-145.508,-4.395
1584600777.368,29.785,33.203,26.855,80.078,13.672
1584600777.372,45.898,30.273,29.297,205.566,44.922
1584600777.376,36.133,20.996,28.809,16.602,-20.020
1584600777.380,9.277,23.438,24.414,-150.879,25.879
1584600777.384,28.320,27.832,24.414,14.160,58.105
1584600777.388,54.199,29.297,27.344,207.031,20.996
1584600777.392,25.391,26.367,32.227,86.914,26.367
1584600777.395,-1.465,17.578,32.227,-139.160,30.273
1584600777.399,30.273,21.973,30.273,-63.965,11.719
1584600777.403,67.871,33.203,30.273,172.852,16.113
1584600777.407,41.504,31.250,25.391,134.277,38.086
1584600777.411,-10.742,28.320,23.926,-109.863,24.414
1584600777.415,-9.277,34.668,26.855,-113.281,36.621
1584600777.419,33.203,38.086,32.715,136.230,-12.207
1584600777.423,55.176,37.598,37.109,194.336,4.395
1584600777.427,26.367,27.344,30.273,-36.133,73.242
1584600777.431,0.488,17.090,21.973,-153.809,79.102
1584600777.435,38.086,24.902,28.809,59.570,36.621
1584600777.438,52.734,31.250,38.574,209.473,47.363
1584600777.442,13.184,23.438,35.156,33.203,63.477
1584600777.446,-1.953,17.090,31.250,-153.320,62.988
1584600777.450,23.926,17.578,33.203,-5.859,40.527
1584600777.454,53.223,28.809,36.133,203.125,28.809
1584600777.458,39.062,35.156,33.203,104.492,27.832
1584600777.462,0.977,28.320,27.344,-125.488,21.484
1584600777.466,21.484,30.762,31.738,-66.895,32.227
1584600777.470,59.570,37.598,40.039,182.129,-36.133
1584600777.474,46.387,35.645,35.645,167.480,-18.555
1584600777.477,12.207,28.320,22.949,-91.309,20.996
1584600777.481,11.719,28.809,16.602,-136.230,17.090
1584600777.485,43.945,32.715,24.902,111.328,41.992
1584600777.489,51.758,28.809,29.297,195.312,0.488
1584600777.493,24.902,20.508,22.949,-24.414,-9.277
1584600777.497,4.395,23.926,20.508,-159.668,40.039
1584600777.501,31.738,36.621,28.320,44.922,56.641
1584600777.505,66.406,40.527,37.109,216.309,20.020
1584600777.509,45.410,27.344,26.855,49.316,-4.395
1584600777.513,7.812,20.508,24.414,-157.227,47.852
1584600777.517,12.207,34.668,35.156,-24.902,29.785
1584600777.520,31.738,33.691,31.738,199.219,29.785
1584600777.524,20.996,22.949,20.996,109.863,78.613
1584600777.528,-5.859,23.438,14.648,-133.301,12.207
1584600777.532,11.719,35.645,15.137,-100.586,-6.836
1584600777.536,57.129,42.969,24.902,152.832,92.285
1584600777.540,60.059,41.992,27.832,172.363,96.191
1584600777.544,20.020,30.273,21.973,-78.613,9.277
1584600777.548,8.789,23.926,19.043,-143.555,24.902
1584600777.552,33.691,31.250,20.996,101.074,41.016
1584600777.556,43.945,31.738,21.484,198.730,33.691
1584600777.560,14.648,29.297,21.484,-16.113,15.137
1584600777.563,3.418,32.715,25.391,-156.738,44.922
1584600777.567,46.875,41.992,35.156,40.527,95.215
1584600777.571,59.570,33.691,31.738,216.797,54.688
1584600777.575,18.555,20.996,21.484,62.012,36.621
1584600777.579,-12.207,21.973,20.996,-158.203,-6.348
1584600777.583,19.531,27.832,29.297,-45.898,-2.441
1584600777.587,56.152,35.156,31.250,186.035,62.012
1584600777.591,46.387,34.668,26.855,125.488,54.688
1584600777.595,12.207,21.973,23.926,-118.652,4.883
1584600777.599,9.766,19.531,26.855,-111.328,-54.688
1584600777.602,33.203,27.832,31.250,147.461,-35.645
1584600777.606,22.949,26.855,26.855,177.734,19.043
1584600777.610,-4.395,23.926,22.461,-61.035,12.695
1584600777.614,2.930,27.344,24.414,-135.254,25.391
1584600777.618,49.316,33.691,29.785,90.332,30.273
1584600777.622,56.641,33.691,25.391,210.938,44.922
1584600777.626,12.695,20.996,15.137,13.184,72.754
1584600777.630,0.488,16.113,14.648,-156.250,84.473
1584600777.634,38.086,30.273,24.414,18.066,67.383
1584600777.638,56.152,30.273,28.320,213.867,98.145
1584600777.642,30.762,25.391,25.391,87.891,55.664
1584600777.645,2.441,29.785,21.484,-147.949,-36.133
1584600777.649,11.719,29.297,22.461,-69.824,-23.438
1584600777.653,42.969,33.691,34.180,185.547,39.551
1584600777.657,33.203,32.715,32.227,153.320,60.547
1584600777.661,-13.184,19.531,20.508,-106.934,47.363
1584600777.665,-3.418,24.902,30.273,-115.234,12.207
1584600777.669,44.434,36.621,37.109,141.113,9.766
1584600777.673,44.922,24.902,29.785,190.430,18.555
1584600777.677,17.090,14.648,23.926,-42.969,-11.230
1584600777.681,16.113,17.090,24.902,-153.320,-5.371
1584600777.685,39.062,26.367,27.832,62.012,-21.484
1584600777.688,54.688,26.855,27.832,203.613,-8.789
1584600777.692,34.668,26.855,33.203,31.738,12.695
1584600777.696,7.324,26.367,34.180,-149.902,27.344
1584600777.700,18.066,21.973,30.762,-2.930,27.832
1584600777.704,33.691,23.438,28.320,205.078,2.930
1584600777.708,31.738,22.949,29.297,100.098,7.324
1584600777.712,10.254,23.438,33.203,-134.766,8.789
1584600777.716,12.207,23.438,32.715,-77.637,7.812
1584600777.720,46.875,21.973,31.738,167.480,19.043
1584600777.724,37.598,18.555,28.809,153.320,29.297
1584600777.727,11.230,18.066,28.320,-85.449,-4.883
1584600777.731,15.625,20.508,25.879,-126.465,0.000
1584600777.735,48.340,24.414,23.438,106.445,-18.066
1584600777.739,42.969,22.461,25.879,192.383,-30.762
1584600777.743,-3.418,16.602,23.926,-21.973,17.090
1584600777.747,-10.254,16.113,20.508,-153.320,37.109
1584600777.751,20.996,19.531,25.879,44.922,-4.395
1584600777.755,42.969,27.832,31.738,210.938,8.789
1584600777.759,32.227,30.762,32.715,60.059,31.250
1584600777.763,9.277,24.902,28.320,-147.461,40.039
1584600777.767,24.902,28.320,29.297,-26.367,45.410
1584600777.770,45.410,35.156,31.250,197.754,38.574
1584600777.774,21.973,24.902,23.438,110.352,47.852
1584600777.778,-11.230,12.695,18.555,-134.277,27.832
1584600777.782,6.836,19.043,21.973,-100.098,48.340
1584600777.786,49.805,32.227,32.715,156.738,45.898
1584600777.790,48.340,31.250,32.715,174.316,25.879
1584600777.794,19.531,17.090,26.367,-72.754,25.879
1584600777.798,6.836,15.625,24.414,-142.578,36.133
1584600777.802,34.180,22.461,29.785,93.262,-3.418
1584600777.806,63.477,24.902,39.062,204.590,-2.441
1584600777.810,31.250,21.973,35.645,-0.488,46.875
1584600777.813,-2.930,20.508,26.367,-159.668,13.672
1584600777.817,24.902,27.344,24.902,22.461,18.066
1584600777.821,42.969,23.438,23.926,203.613,33.691
1584600777.825,28.809,18.555,22.461,65.430,3.906
1584600777.829,4.395,23.438,22.949,-154.297,46.387
1584600777.833,10.254,31.738,24.414,-52.246,51.270
1584600777.837,39.062,33.691,27.344,185.059,36.621
1584600777.841,38.574,16.602,25.879,128.418,49.805
1584600777.845,10.254,13.672,28.320,-112.793,26.855
1584600777.849,18.555,34.668,41.504,-96.680,5.859
1584600777.852,54.199,38.574,43.945,156.250,8.789
1584600777.856,41.992,20.508,35.645,177.246,34.668
1584600777.860,-6.836,10.254,24.902,-67.383,65.430
1584600777.864,-20.020,20.996,25.391,-147.461,6.836
1584600777.868,19.531,34.180,37.109,82.031,19.043
1584600777.872,52.734,36.621,41.016,196.777,84.961
1584600777.876,24.414,26.855,34.668,4.883,84.473
1584600777.880,-7.324,17.090,31.738,-159.668,59.082
1584600777.884,21.973,21.484,37.598,10.742,58.105
1584600777.888,45.898,26.367,41.504,210.938,61.523
1584600777.892,25.879,23.438,37.598,85.938,-30.762
1584600777.895,0.977,23.926,35.645,-137.207,-22.461
1584600777.899,9.277,25.879,38.574,-53.711,63.965
1584600777.903,42.480,29.785,42.969,189.941,56.152
1584600777.907,42.480,28.809,37.109,145.508,40.039
1584600777.911,12.207,17.090,22.461,-107.910,-9.766
1584600777.915,12.207,20.996,20.508,-122.559,-70.312
1584600777.919,39.551,24.902,29.297,121.582,42.969
1584600777.923,40.039,25.391,34.180,190.918,66.895
1584600777.927,8.789,28.320,31.738,-33.691,-6.348
1584600777.931,-4.395,28.809,36.621,-142.578,24.414
1584600777.935,12.695,27.832,36.621,71.289,45.410
1584600777.938,32.715,26.367,27.344,210.938,87.402
1584600777.942,22.949,24.414,19.531,31.738,66.406
1584600777.946,-1.953,23.926,24.902,-151.367,-27.832
1584600777.950,10.742,28.809,35.156,4.883,24.902
1584600777.954,41.992,35.645,37.598,214.355,52.246
1584600777.958,31.738,32.715,34.180,97.168,-3.418
1584600777.962,-12.207,17.578,24.414,-152.344,2.930
1584600777.966,-4.883,18.066,23.438,-88.867,26.367
1584600777.970,46.875,34.668,28.320,170.410,55.664
1584600777.974,54.688,26.855,29.297,167.969,49.805
1584600777.977,6.348,13.672,26.855,-76.172,-14.160
1584600777.981,-12.207,18.555,23.438,-124.023,-33.691
1584600777.985,26.367,29.785,22.461,117.188,19.531
1584600777.989,46.875,36.133,22.461,204.590,24.902
1584600777.993,19.043,29.785,19.531,-16.602,51.758
1584600777.997,-0.488,24.902,11.719,-156.250,40.039
1584600778.001,25.879,30.762,18.555,38.574,4.395
1584600778.005,43.457,33.203,26.855,203.125,24.414
1584600778.009,20.020,25.391,22.461,47.363,3.906
1584600778.013,4.395,23.438,22.949,-152.832,-9.766
1584600778.017,40.527,39.551,36.133,-18.555,42.480
1584600778.020,65.918,35.645,38.574,208.008,103.027
1584600778.024,34.180,22.949,24.414,118.164,82.520
1584600778.028,-5.371,22.461,15.625,-135.254,14.160
1584600778.032,12.207,30.273,23.438,-93.750,23.438
1584600778.036,60.059,31.738,32.227,163.574,-7.324
1584600778.040,33.203,19.531,32.227,174.316,0.977
1584600778.044,-18.066,15.625,25.391,-70.801,14.648
1584600778.048,-5.859,22.949,21.973,-137.695,19.043
1584600778.052,38.086,31.250,25.879,100.586,59.082
1584600778.056,47.363,30.762,28.809,203.613,60.547
1584600778.060,21.484,25.391,27.344,1.953,-5.859
1584600778.063,7.812,19.043,25.391,-147.949,-69.824
1584600778.067,33.691,22.949,31.250,30.762,-21.484
1584600778.071,60.547,34.180,35.645,210.449,37.109
1584600778.075,39.551,24.902,32.715,69.824,28.320
1584600778.079,1.465,18.555,27.832,-150.391,16.602
1584600778.083,12.695,27.344,26.855,-42.969,0.977
1584600778.087,38.574,32.715,30.273,201.172,20.996
1584600778.091,19.043,23.438,23.926,132.324,54.199
1584600778.095,-5.859,11.719,15.625,-126.953,62.988
1584600778.099,5.859,13.672,23.926,-113.770,26.367
1584600778.102,39.062,23.926,33.203,140.137,-28.809
1584600778.106,42.969,27.832,26.855,176.270,-12.695
1584600778.110,15.625,25.391,21.973,-61.035,-26.855
1584600778.114,13.184,31.250,25.391,-146.484,-12.695
1584600778.118,36.621,41.504,28.809,82.520,86.914
1584600778.122,44.922,34.668,27.344,206.543,59.570
1584600778.126,21.484,23.926,25.879,9.277,31.250
1584600778.130,2.441,23.438,28.320,-159.668,46.387
1584600778.134,34.668,36.133,38.086,19.043,37.598
1584600778.138,54.199,31.738,39.062,218.750,37.109
1584600778.142,17.578,14.160,25.879,78.613,45.898
1584600778.145,-4.883,17.578,17.090,-159.180,31.250
1584600778.149,20.020,26.855,20.508,-73.242,13.184
1584600778.153,37.109,24.902,26.855,176.758,57.617
1584600778.157,18.555,22.949,28.320,141.602,17.090
1584600778.161,-16.113,21.484,23.438,-106.934,-1.953
1584600778.165,-16.113,23.438,20.020,-118.652,28.320
1584600778.169,26.855,31.250,27.832,133.789,-22.461
1584600778.173,45.898,29.785,33.203,189.453,1.465
1584600778.177,9.766,23.926,32.715,-40.527,57.129
1584600778.181,-16.113,20.996,28.809,-147.461,43.457
1584600778.185,10.254,22.461,26.855,54.688,11.719
1584600778.188,38.574,28.809,35.156,206.543,31.738
1584600778.192,19.531,22.461,32.715,37.598,48.828
1584600778.196,-12.207,13.184,19.531,-161.621,34.668
1584600778.200,14.160,18.555,22.949,-15.137,25.391
1584600778.204,42.969,29.785,33.691,204.102,39.062
1584600778.208,22.461,28.320,30.273,105.469,58.105
1584600778.212,-2.930,17.578,23.438,-128.906,73.242
1584600778.216,12.695,26.367,32.715,-61.035,42.480
1584600778.220,37.109,36.133,33.691,180.176,28.809
1584600778.224,29.297,33.203,27.344,163.574,104.492
1584600778.227,4.395,21.484,26.367,-83.496,52.734
1584600778.231,4.395,20.508,27.832,-128.906,-0.488
1584600778.235,31.250,35.156,31.738,122.559,77.148
1584600778.239,22.949,32.227,30.273,203.613,102.051
1584600778.243,-11.230,27.832,28.809,-18.555,44.922
1584600778.247,-28.320,29.297,26.367,-155.762,13.672
1584600778.251,-15.137,30.273,29.785,43.945,79.590
1584600778.255,-3.906,30.273,33.203,209.473,85.449
1584600778.259,-28.320,18.066,29.297,46.387,60.547
1584600778.263,-35.645,17.578,33.691,-148.926,45.410
1584600778.267,-8.301,24.414,34.180,-24.414,53.223
1584600778.270,8.301,17.578,29.297,189.453,28.809
1584600778.274,-6.348,17.578,29.297,111.816,1.953
1584600778.278,-30.762,24.414,25.879,-130.371,20.020
1584600778.282,-22.461,27.832,26.367,-94.727,20.996
1584600778.286,14.160,35.645,39.551,167.480,28.320
1584600778.290,33.203,38.574,45.898,179.199,17.090
1584600778.294,1.953,25.391,31.738,-76.660,-31.738
1584600778.298,-6.348,20.020,22.461,-142.090,-13.184
1584600778.302,29.297,25.391,27.344,97.168,8.789
1584600778.306,31.738,22.461,29.297,199.219,20.508
1584600778.310,-2.930,15.137,26.367,-7.812,36.621
1584600778.313,-19.043,11.719,24.414,-156.250,-16.602
1584600778.317,7.812,24.902,32.227,30.762,9.277
1584600778.321,35.645,35.645,35.645,213.867,70.801
1584600778.325,17.090,21.973,26.855,72.754,82.031
1584600778.329,-13.184,14.160,20.996,-148.926,109.863
1584600778.333,8.301,23.438,26.367,-45.898,41.504
1584600778.337,42.480,38.086,34.668,190.918,-5.371
1584600778.341,33.691,40.527,32.715,132.812,-25.879
1584600778.345,-0.488,31.250,30.273,-112.305,10.742
1584600778.349,3.418,27.344,30.762,-104.980,28.809
1584600778.352,48.340,29.785,26.855,140.137,-1.465
1584600778.356,54.199,26.855,23.926,171.387,-4.395
1584600778.360,0.488,20.508,24.902,-58.105,-34.180
1584600778.364,-17.090,20.508,25.879,-141.113,-10.254
1584600778.368,23.926,20.508,26.855,75.684,12.207
1584600778.372,41.992,23.438,28.809,203.125,-24.902
1584600778.376,22.949,31.250,27.832,12.695,-37.109
1584600778.380,7.324,30.273,25.879,-159.180,0.977
1584600778.384,37.598,27.344,28.320,7.324,6.836
1584600778.388,66.406,41.016,30.762,208.008,-53.711
1584600778.392,46.387,40.039,29.785,92.773,-35.156
1584600778.395,3.906,18.555,20.996,-149.414,-7.812
1584600778.399,8.789,21.484,22.461,-73.242,-4.395
1584600778.403,45.410,29.297,25.391,170.898,24.414
1584600778.407,46.875,23.438,19.531,138.184,13.672
1584600778.411,12.207,16.113,15.137,-108.887,-18.066
1584600778.415,7.812,20.020,20.996,-125.488,16.113
1584600778.419,50.781,29.785,35.156,134.277,39.062
1584600778.423,52.246,30.273,36.621,195.312,10.742
1584600778.427,4.883,21.484,22.949,-41.504,20.996
1584600778.431,-11.230,22.949,20.996,-157.227,42.480
1584600778.435,24.902,33.203,29.297,56.641,-37.598
1584600778.438,53.223,36.133,31.250,205.078,0.000
1584600778.442,36.621,32.715,30.273,31.250,48.340
1584600778.446,6.348,25.391,26.855,-163.574,-8.301
1584600778.450,15.625,22.949,24.902,-14.648,2.441
1584600778.454,39.062,29.297,28.320,207.520,38.086
1584600778.458,36.133,26.367,28.320,104.004,102.539
1584600778.462,15.137,20.996,28.320,-133.301,44.434
1584600778.466,13.184,20.996,30.273,-73.242,2.441
1584600778.470,36.133,26.367,28.809,172.852,53.223
1584600778.474,33.203,25.391,29.297,158.691,20.020
1584600778.477,-0.977,17.090,27.832,-94.727,-2.930
1584600778.481,3.418,21.484,26.367,-139.160,2.930
1584600778.485,36.621,27.344,35.156,109.863,7.324
1584600778.489,47.852,26.855,35.645,190.430,64.941
1584600778.493,23.926,26.367,29.785,-29.785,57.617
1584600778.497,-3.906,24.414,29.297,-153.809,10.742
1584600778.501,20.996,25.879,25.879,44.922,5.859
1584600778.505,48.828,26.855,24.414,205.078,-12.695
1584600778.509,41.016,24.902,29.297,48.828,14.160
1584600778.513,18.555,22.949,28.809,-155.273,33.691
1584600778.517,24.902,19.531,27.832,-33.203,70.312
1584600778.520,49.805,18.555,27.344,187.988,67.871
1584600778.524,47.363,19.043,23.926,111.816,72.266
1584600778.528,18.066,20.020,20.996,-128.906,64.941
1584600778.532,11.719,27.344,24.414,-97.168,44.434
1584600778.536,41.016,35.645,29.785,155.762,55.664
1584600778.540,42.480,29.785,27.344,173.340,46.387
1584600778.544,25.391,18.555,23.926,-67.871,21.973
1584600778.548,24.414,18.555,26.367,-134.277,19.043
1584600778.552,40.527,28.320,32.227,104.004,29.297
1584600778.556,45.410,32.715,26.367,204.590,24.414
1584600778.560,18.555,25.879,17.090,-8.301,-8.789
1584600778.563,-3.418,24.414,20.020,-162.598,10.742
1584600778.567,32.715,33.691,27.344,29.785,54.199
1584600778.571,67.871,38.086,28.320,219.727,27.832
1584600778.575,50.293,28.320,27.832,69.824,10.742
1584600778.579,23.438,20.996,21.973,-156.738,40.527
1584600778.583,38.574,34.180,23.438,-41.992,16.602
1584600778.587,59.082,37.109,29.785,203.125,54.688
1584600778.591,59.082,39.062,37.109,152.832,40.527
1584600778.595,24.414,36.621,33.203,-104.004,3.418
1584600778.599,8.301,28.809,23.438,-113.281,-9.766
1584600778.602,35.645,32.715,24.414,138.184,10.254
1584600778.606,37.109,23.438,24.414,176.270,48.340
1584600778.610,11.230,15.137,23.926,-59.082,63.477
1584600778.614,5.859,19.531,27.832,-145.508,59.570
1584600778.618,51.758,21.484,36.133,96.680,27.832
1584600778.622,82.520,24.902,37.598,232.422,38.086
1584600778.626,40.527,22.461,26.367,14.648,48.828
1584600778.630,-10.742,20.996,15.137,-173.340,6.836
1584600778.634,0.977,20.508,15.137,-1.465,-0.977
1584600778.638,39.551,23.926,23.438,207.520,-5.371
1584600778.642,37.598,38.086,27.832,93.262,-18.555
1584600778.645,2.930,27.832,18.066,-150.391,0.000
1584600778.649,10.742,20.508,15.137,-78.613,-9.277
1584600778.653,51.270,30.762,19.043,166.504,7.324
1584600778.657,46.875,27.832,20.996,131.348,-8.789
1584600778.661,19.043,20.508,18.555,-118.652,1.465
1584600778.665,18.555,19.043,18.555,-133.789,27.832
1584600778.669,39.551,24.902,26.855,118.164,26.855
1584600778.673,38.574,20.508,26.367,182.129,72.754
1584600778.677,12.695,11.230,24.902,-38.574,41.992
1584600778.681,21.484,24.414,33.691,-141.113,38.086
1584600778.685,33.203,33.203,30.273,66.406,83.496
1584600778.688,29.785,26.367,20.996,206.055,59.082
1584600778.692,17.578,20.020,20.020,28.809,-6.348
1584600778.696,-0.977,18.555,17.090,-163.574,-28.809
1584600778.700,21.484,29.297,20.996,-19.043,20.020
1584600778.704,46.387,37.598,28.320,199.219,28.809
1584600778.708,32.715,27.832,25.391,98.633,-8.789
1584600778.712,12.207,16.602,21.484,-146.484,13.184
1584600778.716,25.391,25.879,26.367,-84.473,1.465
1584600778.720,60.547,36.621,34.180,177.734,6.348
1584600778.724,50.781,27.344,34.668,170.410,51.270
1584600778.727,16.602,23.438,31.738,-84.961,70.801
1584600778.731,18.555,24.414,34.180,-124.023,56.152
1584600778.735,40.039,20.508,35.645,127.930,9.766
1584600778.739,47.852,30.273,31.738,209.961,31.738
1584600778.743,21.973,27.344,23.438,-17.578,40.039
1584600778.747,11.719,16.602,20.020,-154.297,-3.906
1584600778.751,37.598,23.926,21.973,50.781,13.184
1584600778.755,51.758,32.227,20.996,213.379,47.363
1584600778.759,32.715,30.762,22.949,53.711,7.324
1584600778.763,11.230,25.391,22.949,-145.020,-7.812
1584600778.767,26.367,21.973,22.461,-23.438,27.832
1584600778.770,62.500,28.809,30.762,204.590,24.414
1584600778.774,47.363,30.762,30.762,130.859,7.324
1584600778.778,3.418,20.996,17.090,-121.094,28.320
1584600778.782,18.555,19.531,17.578,-94.238,52.734
1584600778.786,51.270,31.738,26.367,160.156,91.309
1584600778.790,41.016,29.297,24.414,172.852,42.480
1584600778.794,9.766,21.484,20.508,-70.312,30.762
1584600778.798,0.488,27.832,23.438,-136.230,46.387
1584600778.802,35.156,34.668,33.203,103.027,61.035
1584600778.806,54.688,31.738,32.227,207.031,60.547
1584600778.810,22.461,21.973,22.949,-1.953,43.457
1584600778.813,4.395,14.160,21.484,-158.203,2.930
1584600778.817,33.691,20.508,26.367,21.973,-8.789
1584600778.821,53.223,33.691,38.574,210.938,7.812
1584600778.825,30.762,30.762,40.039,83.496,28.320
1584600778.829,-7.812,16.602,24.414,-138.184,14.648
1584600778.833,7.812,11.719,22.949,-44.922,18.066
1584600778.837,54.688,24.902,32.227,199.707,29.297
1584600778.841,54.688,34.668,33.691,144.531,24.902
1584600778.845,7.812,19.531,25.391,-114.258,10.742
1584600778.849,6.348,20.020,23.926,-109.375,32.227
1584600778.852,52.734,33.203,27.344,140.625,70.801
1584600778.856,53.711,31.250,28.320,181.641,58.105
1584600778.860,16.602,25.391,23.926,-56.641,17.578
1584600778.864,0.000,29.297,22.949,-151.855,21.484
1584600778.868,28.809,36.621,29.297,80.566,21.484
1584600778.872,55.664,40.039,37.598,213.379,-15.625
1584600778.876,37.109,40.039,37.598,20.508,20.508
1584600778.880,1.465,27.344,25.879,-157.227,61.035
1584600778.884,12.207,18.066,23.438,5.859,50.293
1584600778.888,46.387,23.438,26.367,205.566,5.371
1584600778.892,41.992,23.926,21.484,82.520,23.438
1584600778.895,15.137,25.391,20.508,-145.996,27.832
1584600778.899,25.391,33.203,25.391,-65.430,-7.812
1584600778.903,53.223,36.621,31.250,178.711,1.953
1584600778.907,45.898,29.297,30.273,141.602,7.324
1584600778.911,8.301,25.879,28.320,-97.168,8.301
1584600778.915,8.789,28.320,31.250,-99.609,45.410
1584600778.919,51.758,33.691,35.156,145.508,55.664
1584600778.923,59.570,37.109,29.785,199.219,50.293
1584600778.927,28.809,27.832,22.949,-29.785,11.719
1584600778.931,23.438,28.809,28.809,-138.184,2.441
1584600778.935,52.734,32.227,26.367,72.754,52.246
1584600778.938,64.453,26.367,26.367,217.773,70.801
1584600778.942,39.062,22.461,25.879,37.598,6.836
1584600778.946,15.625,24.902,19.531,-154.785,-24.414
1584600778.950,30.762,35.645,30.273,-6.348,44.922
1584600778.954,47.363,37.109,37.598,211.914,57.617
1584600778.958,29.785,23.438,28.320,110.840,30.762
1584600778.962,7.324,18.066,18.555,-129.395,72.754
1584600778.966,19.531,24.414,19.531,-78.125,70.801
1584600778.970,43.457,29.297,25.391,165.527,20.508
1584600778.974,34.180,20.508,24.902,158.203,28.320
1584600778.977,8.789,12.207,20.996,-92.285,41.504
1584600778.981,12.207,19.043,26.367,-130.859,3.906
1584600778.985,36.621,21.484,37.109,122.559,0.000
1584600778.989,52.246,27.344,35.645,206.543,21.973
1584600778.993,24.902,24.902,25.879,-18.555,-29.297
1584600778.997,-7.324,13.184,16.113,-169.922,29.297
1584600779.001,19.531,25.879,20.020,27.344,87.402
1584600779.005,49.316,36.621,27.344,207.520,-1.465
1584600779.009,25.879,24.414,20.020,47.363,-56.641
1584600779.013,-4.883,17.090,13.672,-170.410,-63.477
1584600779.017,21.973,25.879,24.902,-41.504,-46.875
1584600779.020,47.363,28.320,34.668,196.777,-6.348
1584600779.024,27.344,22.461,25.879,108.887,37.598
1584600779.028,-0.977,21.973,18.066,-140.137,29.297
1584600779.032,18.066,33.691,26.855,-89.844,13.184
1584600779.036,63.965,33.203,33.203,165.527,35.156
1584600779.040,46.387,17.578,32.227,168.945,27.832
1584600779.044,-14.648,12.695,26.367,-86.914,-29.297
1584600779.048,-15.625,21.973,26.855,-153.320,-11.719
1584600779.052,27.832,29.297,34.180,94.238,-12.207
1584600779.056,36.133,32.227,30.762,196.777,0.000
1584600779.060,9.766,27.344,26.855,-10.254,57.129
1584600779.063,2.930,23.438,29.785,-150.879,24.414
1584600779.067,41.992,34.668,36.621,38.574,-22.949
1584600779.071,61.523,35.645,33.691,213.867,15.625
1584600779.075,33.691,27.832,23.926,67.383,40.039
1584600779.079,8.789,27.344,20.508,-151.367,22.949
1584600779.083,23.926,28.809,22.949,-49.316,38.086
1584600779.087,55.664,30.762,31.738,192.383,38.574
1584600779.091,45.898,28.320,34.668,136.230,54.199
1584600779.095,13.672,19.531,26.367,-115.723,62.500
1584600779.099,8.301,21.973,23.926,-109.375,26.367
1584600779.102,32.715,32.227,29.297,148.438,-13.672
1584600779.106,34.668,27.344,28.809,186.035,-2.930
1584600779.110,19.531,17.090,26.367,-55.176,41.504
1584600779.114,22.461,16.602,25.879,-146.973,60.547
1584600779.118,39.551,28.320,27.832,82.520,65.918
1584600779.122,41.992,30.273,29.785,211.426,89.355
1584600779.126,19.043,20.020,23.926,16.113,64.453
1584600779.130,6.348,22.949,25.391,-156.250,14.160
1584600779.134,35.645,30.273,30.762,9.277,45.898
1584600779.138,60.547,29.785,33.691,210.449,77.637
1584600779.142,40.039,31.250,32.227,93.262,38.086
1584600779.145,-5.371,19.531,26.367,-143.066,-19.531
1584600779.149,0.977,16.602,26.855,-67.871,1.953
1584600779.153,40.039,30.762,31.250,183.105,49.805
1584600779.157,42.480,31.738,30.762,153.809,42.480
1584600779.161,14.648,20.508,25.391,-99.609,67.383
1584600779.165,1.953,17.578,23.438,-120.117,82.520
1584600779.169,33.691,30.762,31.250,138.184,46.387
1584600779.173,53.223,37.598,38.574,205.078,42.969
1584600779.177,23.438,23.926,29.785,-35.645,86.426
1584600779.181,4.395,18.066,25.879,-156.250,74.707
1584600779.185,27.832,22.949,31.738,61.523,66.895
1584600779.188,52.734,27.832,40.527,218.750,51.758
1584600779.192,32.715,22.949,40.527,32.715,2.930
1584600779.196,-0.488,8.789,27.344,-174.316,-35.156
1584600779.200,22.461,14.648,27.832,-21.973,4.395
1584600779.204,50.781,26.367,33.691,200.684,22.949
1584600779.208,39.551,29.785,35.645,107.910,28.809
1584600779.212,11.230,29.785,35.156,-128.906,68.359
1584600779.216,6.348,23.926,33.691,-75.684,23.926
1584600779.220,37.598,24.414,33.203,171.387,-14.160
1584600779.224,46.875,24.902,35.156,159.180,-3.418
1584600779.227,9.766,19.531,32.715,-87.891,-5.371
1584600779.231,-4.395,20.996,22.949,-134.277,50.781
1584600779.235,32.715,27.344,26.367,109.863,61.035
1584600779.239,56.641,35.156,37.598,208.008,-1.953
1584600779.243,22.461,28.809,35.645,-18.066,-20.508
1584600779.247,-2.441,18.066,32.715,-169.922,-13.184
1584600779.251,39.062,25.879,43.945,35.156,28.809
1584600779.255,53.711,23.438,41.992,203.613,32.715
1584600779.259,9.277,7.812,28.809,36.133,22.461
1584600779.263,-19.531,10.254,25.391,-168.457,23.926
1584600779.267,7.812,21.973,27.832,-41.016,39.062
1584600779.270,47.852,31.738,38.086,195.801,38.086
1584600779.274,44.434,31.250,38.086,120.117,13.184
1584600779.278,7.324,17.578,29.297,-126.953,13.184
1584600779.282,8.789,10.254,30.762,-98.633,-4.883
1584600779.286,54.688,24.414,41.016,156.250,-7.812
1584600779.290,58.105,40.039,48.340,188.477,20.996
1584600779.294,13.184,26.855,41.504,-58.105,34.668
1584600779.298,-1.953,15.137,36.621,-133.789,83.008
1584600779.302,33.203,23.438,36.133,99.121,68.359
1584600779.306,49.805,23.926,38.086,206.543,50.781
1584600779.310,17.578,15.137,33.203,-1.953,89.844
1584600779.313,-0.977,14.648,25.391,-162.109,53.711
1584600779.317,30.273,23.438,28.809,20.020,-1.953
1584600779.321,54.688,32.227,32.715,204.590,16.113
1584600779.325,32.715,27.832,31.250,63.477,22.949
1584600779.329,-2.441,21.484,28.809,-161.133,-37.109
1584600779.333,5.371,27.344,33.691,-50.781,-48.340
1584600779.337,36.133,28.320,39.062,190.918,21.484
1584600779.341,32.715,22.949,36.133,130.371,52.734
1584600779.345,10.742,22.461,35.645,-114.258,16.602
1584600779.349,17.090,24.414,37.598,-102.539,4.883
1584600779.352,50.293,22.461,34.180,144.531,42.969
1584600779.356,49.805,23.926,34.180,180.176,11.719
1584600779.360,8.301,21.973,36.621,-53.223,-1.465
1584600779.364,-3.906,20.020,35.645,-142.578,-6.348
1584600779.368,29.785,25.879,29.785,82.031,-0.977
1584600779.372,46.875,27.344,25.391,202.148,42.480
1584600779.376,22.949,27.832,25.391,9.766,64.453
1584600779.380,5.859,26.855,24.414,-161.621,26.367
1584600779.384,35.645,32.715,32.715,11.230,-7.324
1584600779.388,54.688,35.645,37.598,214.844,12.207
1584600779.392,31.250,21.973,30.273,87.891,18.555
1584600779.395,13.184,25.391,33.203,-136.719,15.137
1584600779.399,28.320,36.621,37.598,-53.223,15.137
1584600779.403,52.734,35.645,30.762,181.152,0.000
1584600779.407,36.133,27.832,27.344,144.531,13.184
1584600779.411,-2.930,19.043,21.484,-107.910,23.926
1584600779.415,2.441,20.508,21.973,-132.324,10.254
1584600779.419,46.387,28.809,34.180,123.535,24.902
1584600779.423,56.641,33.203,40.527,194.336,6.836
1584600779.427,20.996,25.879,29.785,-47.363,-3.906
1584600779.431,-1.953,25.391,20.508,-164.551,5.859
1584600779.435,24.414,37.598,28.809,58.105,-4.883
1584600779.438,48.340,41.504,36.621,209.961,50.293
1584600779.442,33.691,33.691,32.227,34.668,63.477
1584600779.446,15.625,24.414,28.320,-159.180,-3.906
1584600779.450,34.180,21.973,32.227,-11.230,-11.719
1584600779.454,57.617,29.297,34.668,208.984,27.832
1584600779.458,38.086,30.762,35.156,113.770,22.949
1584600779.462,8.301,23.926,30.762,-133.789,-8.301
1584600779.466,13.672,25.879,21.484,-89.355,34.668
1584600779.470,48.828,27.832,23.926,167.480,33.203
1584600779.474,59.570,30.273,31.250,165.527,2.930
1584600779.477,31.738,23.926,31.250,-83.496,10.254
1584600779.481,23.926,18.066,32.227,-125.488,32.227
1584600779.485,37.598,23.438,37.598,122.070,90.332
1584600779.489,36.621,25.391,38.086,207.520,79.590
1584600779.493,12.695,24.902,30.273,-16.602,31.738
1584600779.497,1.465,23.926,29.785,-154.785,32.715
1584600779.501,44.922,31.738,41.504,57.617,45.410
1584600779.505,65.918,32.715,40.039,225.098,37.109
1584600779.509,36.621,19.531,32.715,55.664,10.254
1584600779.513,6.836,12.695,26.855,-154.785,-22.949
1584600779.517,24.902,21.973,31.250,-24.902,-12.207
1584600779.520,50.781,33.691,39.551,211.426,-4.395
1584600779.524,38.574,24.902,33.691,130.371,33.691
1584600779.528,11.230,12.207,24.902,-120.117,33.203
1584600779.532,17.090,17.090,21.484,-88.867,-2.441
1584600779.536,57.617,28.320,23.926,165.527,60.547
1584600779.540,58.594,27.832,25.879,181.152,22.949
1584600779.544,10.742,17.578,23.438,-62.988,-20.996
1584600779.548,8.301,21.484,25.391,-127.930,11.719
1584600779.552,55.664,30.762,32.227,109.863,11.719
1584600779.556,63.477,26.367,33.691,213.379,28.320
1584600779.560,28.809,18.555,22.461,0.488,48.340
1584600779.563,6.348,19.531,18.555,-158.691,51.758
1584600779.567,25.391,28.320,24.414,22.461,69.336
1584600779.571,46.387,32.227,26.367,204.102,36.133
1584600779.575,27.344,19.043,22.949,62.988,22.949
1584600779.579,0.977,12.695,17.578,-153.809,8.301
1584600779.583,17.090,24.902,23.926,-43.457,30.762
1584600779.587,50.293,31.738,27.344,191.895,75.684
1584600779.591,44.922,28.809,20.508,133.789,39.551
1584600779.595,9.766,24.902,20.996,-108.887,51.758
1584600779.599,17.578,27.344,28.809,-98.145,41.504
1584600779.602,52.734,28.809,31.738,154.785,13.184
1584600779.606,54.199,27.832,25.879,185.059,15.137
1584600779.610,26.367,25.879,26.855,-52.246,81.055
1584600779.614,10.254,21.973,30.273,-139.648,41.992
1584600779.618,30.273,23.438,23.926,79.590,-14.160
1584600779.622,43.945,20.996,17.578,206.543,31.738
1584600779.626,17.090,15.625,13.184,16.113,42.480
1584600779.630,1.953,16.113,16.113,-148.926,-7.324
1584600779.634,42.480,24.414,24.902,26.855,6.836
1584600779.638,65.430,31.250,29.297,218.262,45.898
1584600779.642,34.668,25.879,25.879,88.379,51.270
1584600779.645,-9.277,14.160,20.020,-147.461,62.500
1584600779.649,1.953,14.648,20.020,-74.707,-21.973
1584600779.653,49.316,29.297,30.273,181.641,-37.109
1584600779.657,44.434,26.367,29.297,143.066,-11.719
1584600779.661,0.488,17.578,21.484,-118.164,-5.859
1584600779.665,7.812,29.297,30.273,-120.117,46.387
1584600779.669,50.781,34.668,34.668,133.301,70.801
1584600779.673,45.898,26.367,24.902,187.500,27.832
1584600779.677,15.137,16.113,23.438,-39.551,24.902
1584600779.681,2.441,20.508,29.297,-151.367,70.801
1584600779.685,24.414,33.203,31.738,60.059,42.480
1584600779.688,44.434,27.344,31.250,205.078,10.254
1584600779.692,24.902,12.695,32.227,23.438,17.578
1584600779.696,-0.977,10.742,29.297,-168.945,-9.766
1584600779.700,18.066,18.066,28.809,-20.020,-20.020
1584600779.704,33.691,25.879,34.180,194.336,-1.465
1584600779.708,18.066,32.715,35.645,103.516,1.953
1584600779.712,3.906,22.461,31.738,-128.906,-50.781
1584600779.716,15.137,25.391,30.762,-72.754,2.441
1584600779.720,44.434,38.574,31.738,181.641,56.152
1584600779.724,50.781,33.691,31.738,174.316,13.672
1584600779.727,21.973,24.902,31.250,-80.566,57.129
1584600779.731,5.859,23.926,28.320,-130.371,101.562
1584600779.735,38.086,26.855,26.855,112.305,89.355
1584600779.739,52.246,20.508,25.879,194.824,63.965
1584600779.743,15.137,13.184,19.043,-23.926,98.633
1584600779.747,-3.418,18.555,20.020,-160.645,95.215
1584600779.751,31.738,33.203,34.180,43.457,37.598
1584600779.755,55.664,34.180,40.039,226.562,52.246
1584600779.759,36.133,28.809,30.273,65.918,49.805
1584600779.763,9.277,29.297,21.484,-158.203,16.113
1584600779.767,31.250,35.645,29.785,-25.879,-18.066
1584600779.770,70.801,41.504,36.133,209.473,27.344
1584600779.774,46.875,28.809,24.414,119.629,33.691
1584600779.778,-5.859,19.531,19.531,-134.277,-25.879
1584600779.782,3.418,30.273,30.273,-96.680,-28.809
1584600779.786,31.250,32.227,32.227,157.715,-39.062
1584600779.790,24.414,20.996,26.855,165.039,-7.324
1584600779.794,7.812,17.578,27.344,-82.031,22.949
1584600779.798,7.324,24.414,30.762,-146.973,19.043
1584600779.802,41.992,31.738,32.715,94.238,32.227
1584600779.806,49.805,28.809,30.273,198.730,13.672
1584600779.810,4.883,22.461,30.273,-5.371,45.898
1584600779.813,-10.742,16.602,29.297,-159.180,30.762
1584600779.817,26.855,23.438,29.297,25.879,47.852
1584600779.821,60.059,37.598,36.621,216.797,59.570
1584600779.825,36.133,27.832,34.180,73.730,29.297
1584600779.829,-1.953,20.508,21.973,-157.227,25.879
1584600779.833,10.742,30.273,28.809,-50.293,40.039
1584600779.837,38.574,40.527,43.457,198.730,-5.371
1584600779.841,25.879,32.227,35.645,134.277,9.766
1584600779.845,1.465,19.531,24.414,-123.535,42.969
1584600779.849,15.137,23.438,28.320,-114.258,13.184
1584600779.852,37.598,31.738,39.551,149.414,65.918
1584600779.856,32.227,26.367,40.527,197.266,38.574
1584600779.860,8.301,9.766,33.203,-39.551,29.297
1584600779.864,21.973,8.301,33.203,-125.488,12.695
1584600779.868,60.059,25.879,32.715,99.121,-2.930
1584600779.872,42.480,36.621,30.762,214.355,51.270
1584600779.876,3.418,31.250,26.855,10.254,46.875
1584600779.880,-2.930,24.414,20.996,-166.992,20.508
1584600779.884,38.574,27.832,24.902,1.953,-2.441
1584600779.888,64.453,38.086,29.297,199.707,-19.043
1584600779.892,30.762,38.574,26.367,81.055,1.465
1584600779.895,0.000,28.809,24.414,-146.484,21.484
1584600779.899,20.508,29.297,33.203,-59.082,19.531
1584600779.903,56.641,28.809,39.551,191.406,74.707
1584600779.907,37.109,18.555,29.785,154.785,73.242
1584600779.911,5.859,19.531,25.391,-97.168,7.812
1584600779.915,5.859,23.926,31.738,-115.723,14.648
1584600779.919,32.227,21.484,33.691,134.766,37.109
1584600779.923,53.711,24.902,29.785,197.754,31.738
1584600779.927,30.273,19.531,25.391,-40.527,18.555
1584600779.931,6.348,15.625,25.879,-158.691,39.062
1584600779.935,31.738,30.762,32.227,62.012,78.125
1584600779.938,48.828,33.691,34.180,213.867,74.219
1584600779.942,24.414,23.438,26.855,35.645,106.445
1584600779.946,4.883,20.996,22.949,-156.250,55.664
1584600779.950,27.344,27.344,28.320,-3.906,17.090
1584600779.954,59.082,32.227,31.250,212.891,51.270
1584600779.958,49.805,36.621,28.809,110.840,77.637
1584600779.962,12.695,23.438,18.555,-140.137,-25.879
1584600779.966,21.484,12.695,20.508,-88.379,-27.344
1584600779.970,71.777,29.785,34.668,170.410,6.836
1584600779.974,63.477,27.832,29.785,161.621,-9.277
1584600779.977,12.207,11.230,16.113,-94.727,57.617
1584600779.981,-2.930,11.719,15.625,-137.207,45.898
1584600779.985,28.809,18.555,22.949,110.352,37.109
1584600779.989,36.621,28.320,25.391,193.359,66.895
1584600779.993,8.301,27.832,22.461,-22.949,48.828
1584600779.997,4.395,24.902,21.484,-156.738,21.973
1584600780.001,43.457,30.273,27.344,41.016,-11.230
1584600780.005,66.406,31.738,29.785,206.543,-62.500
1584600780.009,23.438,19.531,21.973,46.875,-21.973
1584600780.013,-14.648,19.043,25.391,-152.344,85.449
1584600780.017,11.230,31.250,27.832,-28.809,59.570
1584600780.020,49.805,35.645,23.438,187.500,-26.855
1584600780.024,37.109,31.250,26.367,113.770,30.273
1584600780.028,1.953,21.484,23.926,-128.418,25.391
1584600780.032,17.090,29.785,24.414,-99.609,-36.621
1584600780.036,47.852,38.086,30.762,153.809,-13.672
1584600780.040,34.668,30.273,28.809,173.828,43.945
1584600780.044,12.695,22.949,22.461,-71.289,18.555
1584600780.048,20.508,32.227,26.855,-138.184,-0.488
1584600780.052,44.434,40.527,35.156,103.516,38.574
1584600780.056,31.738,30.762,30.273,207.031,34.668
1584600780.060,0.977,21.973,25.879,-2.930,40.527
1584600780.063,1.465,26.855,26.367,-155.762,62.500
1584600780.067,37.109,32.227,29.785,30.273,26.367
1584600780.071,68.848,39.551,37.109,220.215,5.371
1584600780.075,51.270,34.668,35.156,85.449,20.996
1584600780.079,11.230,20.508,26.367,-144.043,39.062
1584600780.083,25.391,21.973,27.344,-44.922,48.828
1584600780.087,53.223,25.391,32.715,194.824,42.480
1584600780.091,25.879,27.832,28.320,139.648,38.086
1584600780.095,-4.883,20.996,20.020,-112.793,20.020
1584600780.099,19.531,24.902,27.344,-105.957,9.766
1584600780.102,52.734,31.738,32.227,149.414,42.969
1584600780.106,56.152,25.879,29.785,188.965,5.371
1584600780.110,28.809,17.090,25.879,-52.246,-25.391
1584600780.114,10.254,23.438,24.902,-149.902,42.480
1584600780.118,41.504,40.039,29.297,81.055,23.438
1584600780.122,62.500,41.992,28.809,207.520,18.066
1584600780.126,34.668,31.250,25.391,14.648,-14.648
1584600780.130,2.441,22.949,21.484,-155.762,-20.020
1584600780.134,32.227,34.668,32.715,14.648,33.691
1584600780.138,62.012,42.969,36.133,218.750,41.016
1584600780.142,20.020,18.555,20.996,89.844,50.293
1584600780.145,-12.207,9.277,17.090,-145.508,18.555
1584600780.149,14.160,23.438,20.020,-69.824,37.109
1584600780.153,43.945,28.320,22.949,173.340,37.109
1584600780.157,35.156,25.879,22.949,141.602,38.086
1584600780.161,10.742,23.926,22.949,-108.887,-0.488
1584600780.165,6.348,24.902,23.438,-127.441,-13.672
1584600780.169,26.367,32.227,21.484,131.348,47.852
1584600780.173,40.527,30.762,19.531,206.055,-6.348
1584600780.177,17.578,19.043,23.926,-30.273,-50.293
1584600780.181,7.324,17.090,23.438,-156.250,-7.812
1584600780.185,35.645,26.855,29.785,63.477,-8.301
1584600780.188,39.062,31.738,39.551,216.797,-3.906
1584600780.192,16.113,26.855,36.133,40.039,40.527
1584600780.196,3.418,20.508,35.645,-152.344,72.754
1584600780.200,22.461,19.531,35.156,-10.254,7.324
1584600780.204,55.664,28.809,35.645,206.543,-19.531
1584600780.208,44.922,29.297,31.738,109.375,46.387
1584600780.212,8.301,17.578,24.414,-139.160,38.574
1584600780.216,16.113,23.438,28.809,-89.844,14.160
1584600780.220,48.340,30.762,35.156,174.805,50.781
1584600780.224,37.598,25.391,32.715,170.410,52.246
1584600780.227,0.488,23.438,30.273,-83.984,2.441
1584600780.231,0.000,32.227,34.668,-127.441,26.855
1584600780.235,32.227,36.621,37.109,117.188,57.617
1584600780.239,44.434,27.832,31.250,198.242,29.297
1584600780.243,27.344,21.973,24.414,-27.344,41.016
1584600780.247,10.742,18.555,23.438,-161.621,-9.277
1584600780.251,25.879,19.531,31.250,41.504,-10.742
1584600780.255,33.203,26.855,32.227,208.008,42.480
1584600780.259,13.184,32.715,31.738,51.758,7.324
1584600780.263,-5.859,28.809,33.691,-154.785,-4.883
1584600780.267,11.230,25.391,29.297,-37.109,5.371
1584600780.270,58.594,35.645,31.738,195.312,15.625
1584600780.274,56.152,32.227,30.273,118.164,-13.672
1584600780.278,20.020,18.066,23.926,-133.301,-6.348
1584600780.282,11.230,16.113,25.391,-99.609,17.090
1584600780.286,31.250,23.926,29.297,159.668,23.438
1584600780.290,41.504,26.855,30.273,174.316,69.824
1584600780.294,20.996,21.973,28.320,-68.848,35.645
1584600780.298,13.184,23.926,31.250,-135.254,20.020
1584600780.302,39.551,25.391,34.668,96.191,56.641
1584600780.306,52.246,23.438,29.785,197.754,108.887
1584600780.310,34.180,24.902,30.273,-8.301,59.570
1584600780.313,8.789,19.531,32.715,-166.016,6.836
1584600780.317,16.113,22.949,32.715,11.230,13.672
1584600780.321,39.062,33.691,38.086,203.613,5.859
1584600780.325,29.297,30.273,36.133,69.824,21.973
1584600780.329,2.930,15.137,25.391,-158.203,93.750
1584600780.333,17.090,14.160,26.855,-59.570,53.223
1584600780.337,48.828,25.391,29.297,176.758,55.664
1584600780.341,43.457,31.738,27.832,124.023,71.289
1584600780.345,1.465,27.344,24.902,-126.953,3.906
1584600780.349,1.465,23.926,24.414,-122.559,29.297
1584600780.352,39.062,26.367,33.691,135.254,90.820
1584600780.356,38.574,25.391,34.180,182.129,70.801
1584600780.360,13.672,20.508,25.879,-52.734,50.781
1584600780.364,9.766,24.902,28.320,-150.879,83.984
1584600780.368,37.598,35.645,35.156,75.195,52.734
1584600780.372,49.316,27.832,29.785,204.102,2.930
1584600780.376,9.766,14.160,20.020,4.883,-1.953
1584600780.380,-18.555,17.578,19.043,-166.016,43.457
1584600780.384,20.508,26.855,27.344,8.789,41.504
1584600780.388,52.734,30.762,28.320,211.426,51.758
1584600780.392,39.062,22.461,24.414,88.867,60.059
1584600780.395,9.277,18.066,21.973,-145.996,39.551
1584600780.399,23.438,31.738,25.391,-68.359,52.734
1584600780.403,69.824,42.480,33.691,185.059,23.926
1584600780.407,62.500,32.227,28.320,150.391,-5.859
1584600780.411,8.789,20.020,20.508,-105.957,-23.438
1584600780.415,-3.906,19.531,21.973,-118.164,-43.945
1584600780.419,38.574,20.508,27.832,148.926,-3.418
1584600780.423,64.453,25.879,34.668,227.051,-17.578
1584600780.427,29.297,28.809,29.297,-14.160,15.625
1584600780.431,-10.742,22.949,17.090,-159.180,46.875
1584600780.435,23.926,29.297,18.555,50.293,57.617
1584600780.438,62.012,36.621,25.879,208.496,65.918
1584600780.442,33.691,31.250,23.438,32.715,47.852
1584600780.446,6.836,27.832,27.832,-157.227,21.973
1584600780.450,20.020,34.180,36.621,-8.301,28.320
1584600780.454,44.922,37.109,33.691,203.125,60.059
1584600780.458,32.715,31.738,25.879,107.422,22.949
1584600780.462,3.418,26.367,16.113,-133.301,18.066
1584600780.466,12.207,29.297,19.531,-83.496,37.598
1584600780.470,37.598,29.297,24.902,167.969,48.340
1584600780.474,37.109,24.902,23.926,165.039,39.551
1584600780.477,8.789,21.484,23.438,-83.008,-1.465
1584600780.481,12.207,26.367,24.414,-134.766,-23.926
1584600780.485,46.387,40.527,32.227,108.398,18.555
1584600780.489,59.082,45.410,38.086,202.148,63.477
1584600780.493,38.574,30.273,25.879,-24.902,32.227
1584600780.497,4.395,22.461,21.484,-171.387,22.949
1584600780.501,19.531,33.203,33.691,35.645,55.664
1584600780.505,39.551,33.203,34.668,216.797,47.852
1584600780.509,16.602,22.949,26.855,58.594,-10.254
1584600780.513,7.324,21.973,20.508,-160.645,-21.973
1584600780.517,39.062,32.227,27.832,-32.227,-24.902
1584600780.520,62.500,36.133,38.574,208.496,-42.480
1584600780.524,38.574,29.785,37.109,127.441,-35.645
1584600780.528,-2.930,20.996,30.273,-126.953,-28.809
1584600780.532,10.742,19.531,32.227,-96.191,18.066
1584600780.536,49.316,25.391,34.180,162.598,34.668
1584600780.540,52.246,31.738,35.645,181.152,20.996
1584600780.544,23.438,30.273,37.598,-62.012,18.555
1584600780.548,8.789,25.879,31.738,-130.859,40.039
1584600780.552,38.086,25.879,32.715,106.445,53.711
1584600780.556,52.246,22.949,35.645,213.379,-19.531
1584600780.560,28.320,18.066,30.762,7.324,-23.926
1584600780.563,20.996,20.996,28.320,-148.438,18.066
1584600780.567,33.203,24.902,28.320,31.250,41.992
1584600780.571,32.227,25.391,27.832,216.309,30.273
1584600780.575,25.391,25.391,29.785,78.125,-25.879
1584600780.579,3.418,25.879,30.273,-145.996,-3.418
1584600780.583,11.719,27.832,29.785,-46.387,-14.160
1584600780.587,39.551,29.297,30.273,192.871,2.930
1584600780.591,40.039,26.855,29.297,137.207,31.738
1584600780.595,15.625,23.438,25.391,-111.816,35.645
1584600780.599,12.207,25.879,24.902,-107.422,-15.625
1584600780.602,31.250,28.320,23.926,142.090,5.371
1584600780.606,26.367,25.391,19.531,180.176,82.031
1584600780.610,-2.930,18.555,15.625,-57.129,71.289
1584600780.614,6.348,20.508,20.996,-148.438,47.852
1584600780.618,39.551,29.297,28.809,77.148,-4.395
1584600780.622,45.898,29.297,28.809,208.008,36.133
1584600780.626,19.531,22.949,23.438,12.695,56.152
1584600780.630,4.395,24.902,21.973,-162.598,19.531
1584600780.634,28.809,28.809,31.738,7.812,5.859
1584600780.638,38.086,31.250,35.645,212.402,20.020
1584600780.642,22.949,19.531,25.879,87.402,50.781
1584600780.645,-6.348,7.812,18.555,-154.297,35.645
1584600780.649,8.301,20.020,19.043,-76.172,55.176
1584600780.653,53.223,32.227,25.879,175.781,85.449
1584600780.657,44.434,37.598,28.320,153.320,92.285
1584600780.661,0.488,27.344,20.508,-100.586,46.875
1584600780.665,-0.977,20.508,20.508,-128.418,10.254
1584600780.669,36.133,30.762,26.367,123.047,-2.930
1584600780.673,43.457,30.273,26.367,195.801,16.602
1584600780.677,2.441,19.043,25.391,-31.738,3.418
1584600780.681,-17.578,12.695,23.438,-159.180,-20.508
1584600780.685,19.531,18.555,25.879,48.340,-0.977
1584600780.688,47.852,22.949,29.297,199.707,41.504
1584600780.692,31.738,23.926,25.879,22.461,37.598
1584600780.696,8.789,29.785,24.414,-171.387,26.855
1584600780.700,21.973,35.645,30.762,-18.555,47.363
1584600780.704,37.109,36.133,37.109,201.660,8.789
1584600780.708,21.973,20.996,31.250,106.934,-1.953
1584600780.712,4.395,12.695,22.949,-132.324,18.066
1584600780.716,14.648,27.344,20.996,-84.473,13.184
1584600780.720,50.781,30.273,22.949,165.527,4.395
1584600780.724,57.129,23.438,19.043,158.691,24.414
1584600780.727,26.855,22.461,18.066,-91.309,12.207
1584600780.731,8.301,22.461,19.043,-133.789,-21.973
1584600780.735,24.902,24.902,20.996,111.816,-27.344
1584600780.739,41.016,28.809,25.391,196.777,21.973
1584600780.743,21.973,23.926,20.996,-18.555,81.543
1584600780.747,11.719,19.531,19.531,-154.297,79.590
1584600780.751,37.109,29.785,27.344,43.945,10.742
1584600780.755,52.734,32.715,32.227,220.215,61.035
1584600780.759,28.809,25.879,29.785,63.965,40.039
1584600780.763,3.418,24.902,26.855,-148.438,4.395
1584600780.767,21.484,21.484,28.809,-27.344,49.805
1584600780.770,57.617,15.625,26.855,201.660,74.707
1584600780.774,44.434,18.555,22.461,125.977,104.980
1584600780.778,-2.441,18.066,20.020,-122.559,67.871
1584600780.782,7.324,20.020,22.461,-99.609,47.852
1584600780.786,44.922,35.645,28.809,156.250,53.711
1584600780.790,45.898,36.133,27.832,176.758,29.785
1584600780.794,15.137,25.879,23.438,-72.266,42.969
1584600780.798,12.695,28.809,25.391,-141.113,28.320
1584600780.802,57.617,35.645,28.809,99.121,59.082
1584600780.806,68.848,31.250,25.879,217.773,132.812
1584600780.810,19.531,17.090,23.926,18.066,38.086
1584600780.813,-10.254,10.742,25.879,-149.414,-14.160
1584600780.817,31.738,22.949,33.203,27.344,26.855
1584600780.821,61.523,26.855,35.156,216.797,-18.555
1584600780.825,40.039,18.555,27.344,69.336,-11.719
1584600780.829,-7.812,9.766,21.973,-164.062,-8.789
1584600780.833,-2.441,15.137,29.297,-61.523,-40.527
1584600780.837,47.852,22.949,32.227,186.035,-4.883
1584600780.841,44.434,20.020,21.973,137.695,14.160
1584600780.845,2.441,16.602,17.090,-111.816,-15.625
1584600780.849,7.812,19.531,20.508,-106.445,-4.883
1584600780.852,50.781,31.250,28.320,149.414,2.930
1584600780.856,46.875,25.391,26.855,191.406,27.344
1584600780.860,8.301,12.695,15.625,-53.223,51.270
1584600780.864,-5.371,14.160,14.160,-157.227,25.879
1584600780.868,27.344,21.973,19.043,74.707,71.289
1584600780.872,47.852,25.879,25.391,215.332,88.379
1584600780.876,26.855,19.531,26.855,19.531,74.219
1584600780.880,1.953,18.555,22.461,-161.621,31.738
1584600780.884,28.320,29.297,30.273,7.812,31.738
1584600780.888,50.293,32.715,33.203,215.332,38.574
1584600780.892,37.109,20.020,23.926,94.238,33.203
1584600780.895,10.742,12.695,21.973,-141.113,4.883
1584600780.899,20.020,21.484,29.297,-62.012,0.000
1584600780.903,52.246,28.809,33.203,182.129,53.223
1584600780.907,41.016,18.066,28.320,148.438,23.438
1584600780.911,14.160,6.836,27.344,-100.098,-18.066
1584600780.915,14.648,23.926,35.156,-120.605,-8.789
1584600780.919,47.363,37.598,39.551,126.465,19.043
1584600780.923,54.688,28.320,32.227,190.430,27.832
1584600780.927,15.625,21.973,25.391,-34.180,25.391
1584600780.931,-2.930,28.320,26.367,-153.320,82.520
1584600780.935,36.621,38.574,28.809,55.664,68.359
1584600780.938,56.641,36.621,24.414,209.961,31.738
1584600780.942,36.621,35.645,26.855,43.945,-16.113
1584600780.946,16.113,34.668,30.762,-146.484,-30.762
1584600780.950,37.109,25.391,27.344,-13.184,17.578
1584600780.954,56.641,23.438,24.902,200.195,20.020
1584600780.958,35.156,23.926,21.973,104.980,3.418
1584600780.962,-0.488,16.113,20.508,-143.555,23.438
1584600780.966,5.371,13.672,23.926,-91.309,2.441
1584600780.970,48.828,20.996,28.320,167.480,-35.645
1584600780.974,52.246,22.461,25.391,166.504,-49.805
1584600780.977,14.648,25.391,21.973,-79.590,-37.109
1584600780.981,14.648,37.109,23.926,-127.930,-4.883
1584600780.985,40.527,38.086,25.391,112.793,36.133
1584600780.989,46.875,34.180,27.832,205.078,72.754
1584600780.993,21.484,30.762,29.297,-11.230,36.133
1584600780.997,-0.977,23.438,26.367,-156.738,-18.555
1584600781.001,17.090,25.879,24.902,38.574,-27.832
1584600781.005,28.809,23.926,24.414,206.543,25.879
1584600781.009,3.906,16.602,24.414,50.293,30.273
1584600781.013,-4.883,17.578,27.832,-151.855,20.996
1584600781.017,26.367,21.484,29.785,-31.250,11.719
1584600781.020,45.410,23.438,27.344,189.941,26.855
1584600781.024,31.250,25.391,20.996,117.188,20.508
1584600781.028,2.441,22.461,15.137,-125.977,-32.227
1584600781.032,16.602,25.879,28.320,-87.891,0.488
1584600781.036,62.012,44.434,40.039,171.875,21.973
1584600781.040,55.664,41.992,27.832,180.176,2.441
1584600781.044,7.812,17.090,13.672,-74.219,0.977
1584600781.048,-5.371,13.672,14.160,-148.438,20.996
1584600781.052,29.297,29.297,20.996,89.355,6.836
1584600781.056,45.898,32.227,21.484,199.707,10.254
1584600781.060,19.043,25.391,19.531,-0.977,41.992
1584600781.063,-4.395,16.602,19.531,-160.645,50.293
1584600781.067,21.484,26.367,30.273,19.531,46.387
1584600781.071,55.176,42.969,37.109,215.820,46.387
1584600781.075,42.480,36.133,29.785,80.078,40.039
1584600781.079,3.906,20.508,21.484,-153.320,15.625
1584600781.083,17.090,23.926,21.973,-60.547,-4.395
1584600781.087,66.895,39.062,33.203,189.941,16.602
1584600781.091,59.570,31.250,28.320,136.230,39.062
1584600781.095,-0.488,16.113,15.625,-122.559,71.777
1584600781.099,-8.789,17.090,17.578,-121.582,81.543
1584600781.102,34.668,25.879,25.879,130.859,32.227
1584600781.106,31.250,27.832,28.320,183.594,12.695
1584600781.110,-10.742,14.160,23.438,-57.617,17.578
1584600781.114,-12.695,18.066,24.414,-164.551,11.230
1584600781.118,32.227,40.527,33.203,70.312,41.504
1584600781.122,34.180,37.598,28.320,208.496,44.922
1584600781.126,6.836,25.391,20.020,12.695,52.246
1584600781.130,7.812,25.879,22.461,-164.551,18.555
1584600781.134,29.297,33.203,28.809,2.930,-9.766
1584600781.138,42.480,32.227,24.414,207.031,44.434
1584600781.142,27.344,27.344,19.531,92.773,43.945
1584600781.145,14.160,30.273,26.367,-132.812,15.137
1584600781.149,30.273,34.668,31.738,-60.059,4.883
1584600781.153,49.805,29.297,31.250,178.711,0.488
1584600781.157,38.574,21.484,29.297,139.160,16.602
1584600781.161,-2.930,23.438,30.273,-116.699,-38.086
1584600781.165,-9.766,24.902,30.762,-132.812,-16.113
1584600781.169,31.250,24.902,31.250,122.070,-9.766
1584600781.173,43.945,26.367,35.645,197.266,30.273
1584600781.177,14.160,22.949,32.227,-26.367,64.453
1584600781.181,-2.930,24.414,28.320,-148.438,21.973
1584600781.185,32.715,30.762,32.715,66.895,4.883
1584600781.188,63.477,36.621,36.133,223.145,4.395
1584600781.192,42.969,29.785,27.832,45.898,67.383
1584600781.196,10.254,19.043,21.484,-159.668,95.215
1584600781.200,20.020,26.855,24.414,-23.438,48.340
1584600781.204,41.992,36.133,34.180,200.684,26.855
1584600781.208,27.344,27.832,32.227,107.910,-20.996
1584600781.212,-3.906,17.090,23.438,-135.254,9.277
1584600781.216,7.812,22.949,27.832,-85.449,11.719
1584600781.220,48.828,35.156,35.645,174.316,0.977
1584600781.224,50.293,30.273,30.273,178.223,69.824
1584600781.227,12.695,14.648,21.973,-81.543,23.926
1584600781.231,11.719,18.066,28.320,-133.789,-15.625
1584600781.235,43.945,30.762,32.227,109.375,-1.953
1584600781.239,38.574,31.250,25.391,193.848,14.648
1584600781.243,10.742,21.973,21.973,-22.949,-1.465
1584600781.247,6.348,18.066,22.949,-172.852,0.000
1584600781.251,35.645,23.926,25.391,21.973,16.113
1584600781.255,61.035,29.785,28.320,203.613,27.832
1584600781.259,39.062,24.902,21.484,45.898,17.578
1584600781.263,-3.418,14.160,16.602,-168.457,18.555
1584600781.267,10.742,19.043,25.879,-39.551,20.508
1584600781.270,33.691,24.902,36.133,201.172,38.574
1584600781.274,20.996,21.484,34.668,130.371,91.309
1584600781.278,1.953,19.531,29.297,-120.117,71.777
1584600781.282,14.648,28.320,33.203,-95.215,67.383
1584600781.286,60.059,33.691,36.621,161.621,54.199
1584600781.290,62.500,23.926,31.250,181.641,46.875
1584600781.294,11.719,10.742,22.949,-75.195,63.965
1584600781.298,-5.371,16.602,20.996,-156.738,28.809
1584600781.302,34.668,29.785,23.438,84.961,22.461
1584600781.306,44.434,26.855,22.461,200.684,-0.977
1584600781.310,19.531,24.414,20.996,-3.906,2.441
1584600781.313,5.859,25.879,20.996,-161.621,17.090
1584600781.317,32.227,28.320,20.996,20.508,32.715
1584600781.321,75.684,36.621,26.367,215.332,70.801
1584600781.325,50.293,29.297,26.855,75.684,45.898
1584600781.329,-1.465,20.996,27.344,-145.020,-19.531
1584600781.333,13.184,28.809,30.762,-49.805,-25.391
1584600781.337,39.062,29.297,27.344,178.711,-28.809
1584600781.341,24.902,22.949,25.391,125.000,-6.836
1584600781.345,-5.859,12.207,22.461,-119.141,41.504
1584600781.349,-2.930,17.090,21.973,-115.723,24.902
1584600781.352,32.227,28.320,31.250,136.719,23.438
1584600781.356,41.504,24.902,33.203,180.664,16.602
1584600781.360,20.020,22.949,27.832,-54.688,-17.578
1584600781.364,15.137,26.367,30.273,-149.414,33.691
1584600781.368,41.016,34.668,39.062,79.590,31.250
1584600781.372,54.688,40.039,41.992,220.215,39.062
1584600781.376,28.320,25.879,33.203,28.809,59.082
1584600781.380,-0.977,13.672,24.414,-166.992,38.574
1584600781.384,24.414,21.973,26.367,-13.672,65.918
1584600781.388,52.734,24.902,30.762,201.172,20.020
1584600781.392,34.180,20.996,29.297,88.867,35.156
1584600781.395,-5.859,21.484,27.832,-144.531,73.730
1584600781.399,0.977,28.809,31.250,-68.848,55.176
1584600781.403,39.551,33.203,34.668,178.223,-15.137
1584600781.407,41.992,28.809,35.645,157.715,-65.918
1584600781.411,17.090,27.344,33.691,-92.285,29.297
1584600781.415,19.043,31.738,33.691,-120.605,66.895
1584600781.419,54.688,35.156,36.133,127.930,32.715
1584600781.423,56.641,30.273,32.227,194.336,12.695
1584600781.427,6.348,20.508,26.367,-30.762,62.988
1584600781.431,-16.602,22.949,26.855,-153.320,82.031
1584600781.435,29.297,36.133,29.297,56.641,47.363
1584600781.438,60.059,35.645,27.832,214.844,17.090
1584600781.442,40.527,20.508,26.855,38.086,28.809
1584600781.446,20.508,25.391,29.297,-157.715,13.184
1584600781.450,30.762,41.504,29.297,-10.254,10.742
1584600781.454,53.223,38.574,26.855,205.078,59.570
1584600781.458,47.852,32.715,28.320,115.234,89.355
1584600781.462,25.391,35.156,27.344,-117.188,70.312
1584600781.466,25.391,30.273,20.020,-80.566,29.297
1584600781.470,40.527,25.391,20.996,161.621,64.941
1584600781.474,31.738,26.367,26.367,164.551,33.203
1584600781.477,0.977,21.484,20.996,-88.379,-24.902
1584600781.481,5.859,21.484,16.113,-147.461,11.230
1584600781.485,38.086,26.855,22.461,89.844,-15.625
1584600781.489,43.945,23.438,27.344,188.477,-0.977
1584600781.493,20.508,19.531,25.879,-13.672,62.012
1584600781.497,-1.465,23.438,22.461,-158.203,73.730
1584600781.501,21.973,29.297,26.367,37.109,59.570
1584600781.505,42.969,28.320,33.691,216.309,11.230
1584600781.509,25.879,23.926,30.762,58.105,2.441
1584600781.513,5.859,19.531,24.902,-157.715,-4.395
1584600781.517,23.438,20.996,31.738,-41.992,-0.488
1584600781.520,47.852,20.508,32.227,184.570,-0.977
1584600781.524,37.109,19.043,24.902,116.699,-20.020
1584600781.528,6.836,22.949,25.879,-124.512,19.043
1584600781.532,6.348,25.879,27.344,-109.375,15.625
1584600781.536,36.621,27.344,26.855,134.277,2.441
1584600781.540,29.297,30.273,30.273,167.969,57.617
1584600781.544,1.953,23.438,26.367,-71.777,42.969
1584600781.548,7.812,20.020,21.484,-155.762,3.418
1584600781.552,34.180,27.832,25.391,77.637,-4.883
1584600781.556,41.992,25.879,26.367,203.125,38.574
1584600781.560,21.484,18.066,28.320,7.812,43.945
1584600781.563,-7.324,15.137,24.902,-159.180,-6.836
1584600781.567,19.043,22.949,22.461,12.207,18.555
1584600781.571,55.664,30.273,26.855,204.590,48.340
1584600781.575,33.203,26.367,23.438,68.359,11.230
1584600781.579,-1.465,20.508,19.043,-161.621,3.418
1584600781.583,14.648,27.344,24.902,-54.199,21.484
1584600781.587,45.898,34.668,29.785,192.383,35.156
1584600781.591,37.109,28.320,25.879,142.090,-9.277
1584600781.595,12.695,18.066,18.066,-113.770,-2.441
1584600781.599,18.066,21.484,17.090,-127.441,17.578
1584600781.602,41.992,30.762,24.414,128.418,37.598
1584600781.606,33.691,28.809,30.762,187.012,68.848
1584600781.610,2.930,18.066,31.250,-43.945,57.129
1584600781.614,-5.859,12.207,28.320,-146.484,7.324
1584600781.618,28.809,23.438,30.273,81.543,1.953
1584600781.622,48.340,23.438,23.926,210.938,45.898
1584600781.626,20.996,15.625,19.531,14.160,32.715
1584600781.630,-4.395,15.137,22.461,-161.133,17.578
1584600781.634,15.137,28.320,24.414,0.977,-5.371
1584600781.638,47.363,33.691,30.762,210.449,12.207
1584600781.642,35.645,23.926,30.273,94.727,44.922
1584600781.645,-3.906,17.578,22.949,-147.949,-25.879
1584600781.649,11.719,24.414,22.461,-80.078,-38.574
1584600781.653,47.363,36.133,30.273,176.270,51.270
1584600781.657,43.457,29.785,29.785,159.668,93.262
1584600781.661,16.602,15.625,19.531,-94.727,-9.277
1584600781.665,11.719,17.578,18.555,-127.930,0.977
1584600781.669,36.133,25.391,21.484,115.234,66.895
1584600781.673,33.203,26.855,23.926,189.453,31.738
1584600781.677,3.418,24.414,24.902,-24.414,13.672
1584600781.681,-6.348,24.414,22.949,-144.043,47.852
1584600781.685,29.297,34.180,27.344,61.523,30.273
1584600781.688,50.293,31.250,26.855,208.984,8.789
1584600781.692,21.484,19.043,15.625,28.320,49.316
1584600781.696,-8.301,16.113,18.555,-166.504,49.316
1584600781.700,16.113,24.414,29.785,-21.973,18.555
1584600781.704,41.016,27.832,25.879,196.777,38.086
1584600781.708,13.672,21.484,20.508,105.957,78.125
1584600781.712,-11.719,20.508,23.438,-133.789,65.918
1584600781.716,4.883,27.832,25.879,-96.191,57.129
1584600781.720,41.992,28.320,26.855,159.668,76.172
1584600781.724,44.434,21.484,25.391,161.621,63.965
1584600781.727,11.230,20.508,24.902,-90.332,56.152
1584600781.731,14.160,26.855,31.250,-135.742,28.320
1584600781.735,40.039,30.762,30.762,104.004,7.812
1584600781.739,40.039,28.809,26.855,197.266,-1.953
1584600781.743,5.371,18.555,22.461,-17.090,-11.230
1584600781.747,-5.371,14.648,21.484,-161.133,36.133
1584600781.751,43.945,29.297,27.832,37.109,18.555
1584600781.755,73.730,38.574,24.902,209.473,10.254
1584600781.759,47.852,28.809,20.020,62.500,32.227
1584600781.763,1.953,16.113,23.926,-153.809,4.883
1584600781.767,6.348,18.555,32.227,-52.734,-10.254
1584600781.770,39.062,22.949,35.156,182.617,18.066
1584600781.774,22.949,18.066,37.109,125.000,39.551
1584600781.778,-6.348,12.695,35.645,-121.582,44.922
1584600781.782,2.930,13.672,30.762,-100.586,94.727
1584600781.786,35.156,23.438,30.762,152.344,50.293
1584600781.790,46.387,32.227,31.250,179.688,21.484
1584600781.794,14.648,25.391,27.832,-61.523,43.945
1584600781.798,3.906,24.414,27.832,-136.719,18.555
1584600781.802,40.527,33.691,38.574,104.004,36.133
1584600781.806,46.387,29.785,35.645,212.891,73.242
1584600781.810,7.812,18.555,22.949,3.418,52.734
1584600781.813,-13.184,9.766,21.973,-157.227,75.195
1584600781.817,23.438,19.531,31.738,23.926,72.266
1584600781.821,52.734,30.762,39.551,218.750,24.902
1584600781.825,39.551,22.461,32.715,77.637,32.715
1584600781.829,13.184,11.719,22.461,-151.855,41.016
1584600781.833,31.738,19.043,26.855,-51.758,5.371
1584600781.837,66.895,28.809,33.691,194.336,6.836
1584600781.841,49.805,27.832,33.691,150.391,59.570
1584600781.845,8.789,20.020,27.832,-101.562,17.090
1584600781.849,11.230,16.113,27.832,-113.281,20.996
1584600781.852,37.109,23.926,33.203,132.812,41.016
1584600781.856,34.180,28.809,29.785,178.223,-4.883
1584600781.860,12.695,22.949,21.973,-54.688,19.043
1584600781.864,25.879,25.391,22.949,-148.438,23.926
1584600781.868,63.965,37.109,32.715,77.637,19.531
1584600781.872,52.246,31.250,31.250,217.285,66.895
1584600781.876,12.207,19.043,22.949,29.297,27.344
1584600781.880,1.953,16.602,24.414,-154.785,1.953
1584600781.884,29.785,29.785,34.668,8.301,28.809
1584600781.888,52.246,37.109,35.645,214.844,19.043
1584600781.892,38.086,27.344,29.785,101.562,24.902
1584600781.895,0.977,17.578,26.855,-136.230,28.320
1584600781.899,6.348,22.949,28.320,-73.730,20.508
1584600781.903,46.875,34.668,28.320,177.246,31.738
1584600781.907,53.711,28.809,23.438,151.855,42.480
1584600781.911,11.719,10.742,23.926,-103.027,10.742
1584600781.915,-7.812,14.160,28.320,-124.512,19.531
1584600781.919,25.391,24.902,29.785,126.465,37.598
1584600781.923,32.227,22.461,29.297,187.012,-8.789
1584600781.927,13.184,19.531,25.879,-40.527,-28.320
1584600781.931,5.371,15.625,29.297,-160.156,-43.945
1584600781.935,31.250,18.066,34.668,47.363,-36.133
1584600781.938,41.504,27.344,35.156,214.355,20.020
1584600781.942,15.137,30.762,33.691,48.340,25.391
1584600781.946,0.000,27.344,30.273,-153.809,18.555
1584600781.950,24.902,30.273,31.250,-18.066,4.883
1584600781.954,44.434,35.645,31.250,190.430,4.395
1584600781.958,31.250,29.297,28.809,97.168,17.090
1584600781.962,1.953,21.973,28.320,-133.301,8.301
1584600781.966,-3.418,25.879,33.203,-84.961,30.273
1584600781.970,34.668,33.203,38.574,166.992,56.152
1584600781.974,35.645,31.738,36.621,167.480,0.000
1584600781.977,7.324,21.973,32.715,-78.125,16.602
1584600781.981,8.789,25.879,39.062,-128.906,27.832
1584600781.985,42.969,35.156,42.969,108.887,-4.883
1584600781.989,43.457,26.855,39.062,202.637,22.949
1584600781.993,7.324,16.602,37.109,-10.254,24.414
1584600781.997,-2.930,20.020,29.785,-168.945,47.363
1584600782.001,41.504,36.621,29.297,25.879,38.086
1584600782.005,88.867,42.480,35.156,228.516,-3.906
1584600782.009,60.059,29.785,38.086,80.078,11.719
1584600782.013,-2.930,20.996,31.738,-163.086,41.992
1584600782.017,3.906,24.414,35.645,-55.664,27.344
1584600782.020,36.621,33.691,48.828,193.359,6.348
1584600782.024,14.160,30.273,47.852,125.000,4.883
1584600782.028,-14.648,20.508,41.504,-125.977,11.230
1584600782.032,-8.789,20.020,41.992,-113.281,38.086
1584600782.036,19.043,21.484,44.434,140.137,93.262
1584600782.040,19.531,17.090,45.410,170.898,123.535
1584600782.044,-7.812,10.742,40.039,-82.031,76.172
1584600782.048,-7.324,18.066,38.086,-156.250,42.480
1584600782.052,19.043,26.367,43.945,82.520,29.297
1584600782.056,25.391,24.902,45.410,205.078,40.039
1584600782.060,-4.395,14.160,37.109,3.418,46.387
1584600782.063,-23.438,9.766,35.645,-165.527,83.496
1584600782.067,4.883,15.625,41.016,15.137,46.875
1584600782.071,34.180,17.090,41.504,204.102,41.992
1584600782.075,19.043,20.508,39.062,73.242,38.574
1584600782.079,-11.230,16.602,34.668,-151.367,43.945
1584600782.083,4.883,20.020,41.016,-58.105,16.113
1584600782.087,45.410,35.156,48.828,185.059,-25.879
1584600782.091,38.086,27.832,43.457,131.348,-44.922
1584600782.095,-10.254,13.184,34.668,-118.164,-26.855
1584600782.099,-12.695,17.578,31.738,-122.559,46.875
1584600782.102,30.273,26.855,34.668,134.277,68.848
1584600782.106,46.387,29.297,41.504,195.312,53.711
1584600782.110,26.367,24.902,39.551,-38.086,-14.648
1584600782.114,8.789,22.949,30.273,-148.926,10.742
1584600782.118,27.832,27.832,30.273,66.406,40.527
1584600782.122,42.480,29.297,37.598,213.867,4.883
1584600782.126,25.391,21.484,36.621,34.668,39.551
1584600782.130,10.254,16.113,31.250,-151.367,5.371
1584600782.134,24.902,24.902,37.109,5.859,36.133
1584600782.138,46.875,31.250,41.504,219.238,98.633
1584600782.142,38.574,25.391,37.598,108.398,64.453
1584600782.145,16.602,21.484,34.180,-133.301,34.180
1584600782.149,17.578,26.367,35.156,-67.871,13.184
1584600782.153,41.992,30.762,39.062,188.965,14.648
1584600782.157,42.969,27.832,42.480,175.781,27.832
1584600782.161,19.043,21.973,41.992,-79.590,18.555
1584600782.165,11.719,21.973,37.109,-116.699,11.230
1584600782.169,45.898,30.762,35.645,128.906,0.977
1584600782.173,66.895,30.273,33.691,197.754,-4.395
1584600782.177,26.855,20.996,32.715,-25.879,40.039
1584600782.181,-4.883,18.066,35.645,-147.461,-1.465
1584600782.185,25.879,24.414,37.109,62.988,-2.441
1584600782.188,54.199,32.227,41.992,225.098,51.270
1584600782.192,40.039,35.645,42.480,50.293,26.367
1584600782.196,9.277,34.180,33.691,-155.762,21.973
1584600782.200,17.090,35.156,27.832,-20.508,41.992
1584600782.204,35.156,33.203,29.297,199.707,32.227
1584600782.208,32.227,33.691,31.250,119.141,-25.391
1584600782.212,10.742,30.273,29.785,-125.488,-56.152
1584600782.216,18.066,23.438,27.832,-91.797,36.133
1584600782.220,46.387,28.809,31.738,161.621,30.273
1584600782.224,38.086,31.250,31.738,166.992,-40.039
1584600782.227,6.836,25.879,25.879,-83.984,-4.395
1584600782.231,0.000,25.391,27.344,-138.672,64.941
1584600782.235,31.738,30.273,32.227,108.398,70.312
1584600782.239,61.035,31.738,31.250,201.660,26.855
1584600782.243,39.551,26.855,26.855,-12.207,-38.574
1584600782.247,0.000,22.949,25.879,-156.250,-12.695
1584600782.251,17.090,24.902,33.691,33.691,20.020
1584600782.255,41.992,24.414,37.109,210.449,20.996
1584600782.259,32.715,24.414,29.785,63.477,9.277
1584600782.263,16.602,25.879,27.344,-148.438,24.414
1584600782.267,35.645,36.133,35.156,-28.809,49.316
1584600782.270,58.105,42.480,39.062,209.473,51.270
1584600782.274,39.551,32.715,33.203,141.113,67.383
1584600782.278,0.488,19.531,26.367,-115.723,86.426
1584600782.282,4.395,18.066,27.832,-108.887,54.688
1584600782.286,39.062,28.809,31.738,147.949,20.508
1584600782.290,39.062,29.785,32.227,184.570,105.469
1584600782.294,12.695,22.461,28.809,-61.523,69.824
1584600782.298,0.488,24.414,32.227,-139.648,1.953
1584600782.302,32.715,26.855,39.551,94.727,16.602
1584600782.306,56.641,32.715,39.062,217.773,1.953
1584600782.310,28.809,30.273,34.668,19.531,4.395
1584600782.313,-2.441,20.996,30.273,-158.203,39.062
1584600782.317,21.973,31.250,29.785,13.184,77.148
1584600782.321,50.293,35.156,29.785,211.426,64.941
1584600782.325,33.691,25.879,27.344,72.754,10.742
1584600782.329,1.465,22.949,22.461,-160.645,28.320
1584600782.333,21.484,30.273,25.879,-59.082,65.430
1584600782.337,51.758,36.133,31.738,190.430,28.320
1584600782.341,37.109,33.203,31.250,145.996,7.812
1584600782.345,7.812,25.879,25.879,-102.051,44.922
1584600782.349,23.438,25.391,24.902,-92.285,48.340
1584600782.352,65.430,36.133,35.645,166.504,63.965
1584600782.356,42.969,30.273,37.598,184.082,34.668
1584600782.360,5.371,20.508,30.762,-66.406,-4.395
1584600782.364,-8.789,18.555,28.320,-157.715,24.902
1584600782.368,20.020,21.484,32.715,68.359,41.016
1584600782.372,50.293,22.949,34.180,210.449,26.367
1584600782.376,20.020,20.996,34.180,27.832,41.016
1584600782.380,0.000,20.508,33.691,-154.785,57.129
1584600782.384,35.156,25.391,36.133,6.836,20.996
1584600782.388,63.477,31.250,40.527,225.098,-20.508
1584600782.392,41.016,25.879,38.086,116.699,26.855
1584600782.395,1.953,16.602,33.691,-125.000,75.195
1584600782.399,19.043,19.531,35.645,-66.406,45.410
1584600782.403,64.941,23.438,39.062,179.688,21.484
1584600782.407,67.871,21.484,37.109,158.691,14.648
1584600782.411,29.785,19.043,34.180,-92.773,35.645
1584600782.415,22.461,27.832,37.109,-119.141,53.711
1584600782.419,51.270,37.598,41.016,130.859,35.645
1584600782.423,53.223,32.227,39.551,203.613,69.824
1584600782.427,22.949,20.508,35.645,-17.090,55.176
1584600782.431,4.395,11.719,35.156,-145.508,44.434
1584600782.435,34.668,18.066,38.086,55.176,41.016
1584600782.438,63.477,30.762,37.598,221.680,49.805
1584600782.442,48.340,30.762,37.109,60.547,59.570
1584600782.446,24.902,25.879,38.086,-143.066,45.898
1584600782.450,22.949,24.902,34.668,-14.160,76.172
1584600782.454,35.645,22.949,29.785,203.125,23.438
1584600782.458,35.645,22.949,26.367,109.863,-16.113
1584600782.462,17.578,22.461,27.832,-139.160,7.324
1584600782.466,14.648,24.902,31.250,-94.727,-0.488
1584600782.470,37.109,28.320,32.715,164.551,0.000
1584600782.474,46.875,26.367,27.344,162.109,41.992
1584600782.477,22.461,24.414,20.020,-83.984,54.688
1584600782.481,20.996,29.785,25.391,-136.230,25.391
1584600782.485,47.363,38.086,32.227,106.445,47.852
1584600782.489,39.551,36.621,27.832,208.008,29.297
1584600782.493,7.812,28.320,24.414,-4.395,25.879
1584600782.497,4.883,27.344,23.926,-157.227,37.109
1584600782.501,38.086,33.691,28.320,33.203,39.062
1584600782.505,58.105,30.762,27.832,207.031,47.852
1584600782.509,36.133,26.367,23.926,52.246,36.133
1584600782.513,-0.488,23.926,24.414,-158.691,-11.719
1584600782.517,18.066,26.855,30.273,-39.551,-33.203
1584600782.520,52.246,30.273,35.156,195.312,38.086
1584600782.524,38.574,23.438,27.344,130.371,64.453
1584600782.528,6.836,17.578,20.996,-118.164,30.273
1584600782.532,1.953,23.926,27.344,-99.609,26.855
1584600782.536,36.621,29.297,33.203,156.738,36.621
1584600782.540,46.875,29.297,27.344,181.152,-8.301
1584600782.544,13.184,23.438,20.020,-65.430,0.488
1584600782.548,4.395,22.461,21.484,-140.625,21.484
1584600782.552,51.758,33.203,32.227,104.004,-27.344
1584600782.556,70.801,38.086,42.969,223.145,42.480
1584600782.560,17.090,28.809,32.715,3.418,56.152
1584600782.563,-6.348,20.020,20.020,-175.293,-29.297
1584600782.567,36.621,25.879,23.926,2.930,-3.418
1584600782.571,58.594,30.762,30.762,207.031,14.648
1584600782.575,36.133,23.438,28.320,87.891,12.207
1584600782.579,4.883,17.578,23.438,-141.602,62.988
1584600782.583,14.648,22.949,24.902,-59.570,15.137
1584600782.587,48.340,31.250,30.273,187.988,-20.996
1584600782.591,48.340,28.320,31.250,150.391,41.992
1584600782.595,10.742,16.602,25.391,-107.910,73.242
1584600782.599,-1.465,15.625,23.438,-122.559,26.367
1584600782.602,37.109,25.391,28.809,134.766,4.395
1584600782.606,48.828,28.320,32.227,193.848,8.789
1584600782.610,16.602,21.484,29.297,-42.480,-30.762
1584600782.614,-4.395,18.066,26.367,-156.738,27.832
1584600782.618,31.250,22.949,28.809,60.547,11.230
1584600782.622,60.547,21.973,30.273,209.473,-28.809
1584600782.626,25.391,16.113,27.832,29.297,24.414
1584600782.630,1.953,13.184,29.785,-156.250,49.805
1584600782.634,34.668,20.996,33.691,-1.465,25.879
1584600782.638,56.641,29.297,33.203,210.449,34.180
1584600782.642,32.715,25.391,28.809,101.074,32.227
1584600782.645,1.953,19.531,25.879,-140.625,17.578
1584600782.649,21.973,26.855,27.832,-76.660,33.203
1584600782.653,58.594,30.273,33.203,178.223,11.719
1584600782.657,30.762,21.484,27.832,161.133,39.551
1584600782.661,-0.977,18.066,20.508,-89.355,62.500
1584600782.665,20.996,24.414,25.391,-120.117,71.777
1584600782.669,62.012,28.320,29.297,125.488,76.660
1584600782.673,64.453,28.809,30.762,205.566,20.996
1584600782.677,27.832,30.762,25.391,-17.578,-1.953
1584600782.681,-5.371,27.344,17.578,-150.879,44.922
1584600782.685,22.949,29.297,20.508,54.688,64.941
1584600782.688,57.617,32.227,24.414,220.703,30.273
1584600782.692,43.945,33.691,31.250,62.500,-9.766
1584600782.696,22.949,29.785,29.785,-145.508,32.715
1584600782.700,40.039,24.902,21.973,-27.832,77.637
1584600782.704,64.453,28.320,27.832,190.918,54.688
1584600782.708,40.039,24.414,27.344,110.840,16.113
1584600782.712,-4.395,15.137,20.508,-129.395,-22.949
1584600782.716,6.348,21.973,27.832,-85.938,-8.789
1584600782.720,49.316,33.203,36.621,166.016,25.391
1584600782.724,36.133,29.297,33.203,170.898,19.043
1584600782.727,-7.812,20.996,24.902,-76.172,-28.809
1584600782.731,-2.441,25.391,28.809,-139.648,-12.207
1584600782.735,43.945,35.645,36.133,98.633,61.523
1584600782.739,54.688,29.785,32.227,203.613,34.180
1584600782.743,22.461,23.438,30.273,-0.488,-29.297
1584600782.747,0.977,22.949,29.297,-163.574,-32.715
1584600782.751,34.180,31.738,30.762,23.438,-24.902
1584600782.755,62.012,38.086,33.203,216.797,-1.465
1584600782.759,16.113,26.855,26.855,67.871,43.457
1584600782.763,-16.602,17.578,26.855,-150.879,43.945
1584600782.767,26.367,26.855,32.227,-39.551,19.043
1584600782.770,74.219,34.668,29.297,191.406,31.250
1584600782.774,46.387,28.320,21.484,125.977,-9.766
1584600782.778,-7.324,21.973,18.555,-117.676,23.438
1584600782.782,3.418,28.809,24.414,-97.168,56.152
1584600782.786,42.969,37.109,29.297,160.156,72.266
1584600782.790,47.852,30.762,28.320,187.012,78.613
1584600782.794,16.602,21.973,19.043,-66.406,17.090
1584600782.798,15.137,27.832,17.090,-145.996,-5.371
1584600782.802,51.270,33.691,24.902,91.797,-12.695
1584600782.806,56.152,31.738,26.855,207.520,58.594
1584600782.810,23.926,28.320,25.391,7.324,47.363
1584600782.813,0.000,24.414,27.344,-155.762,21.973
1584600782.817,20.996,21.973,31.738,19.531,60.547
1584600782.821,53.223,20.996,27.832,207.520,64.453
1584600782.825,36.621,18.066,21.484,70.312,9.277
1584600782.829,8.301,15.137,21.484,-152.344,-5.371
1584600782.833,21.484,21.484,25.879,-59.570,19.043
1584600782.837,39.062,28.320,30.762,180.664,-13.672
1584600782.841,25.879,27.832,30.273,140.137,3.418
1584600782.845,3.906,24.414,28.809,-105.957,85.449
1584600782.849,5.859,20.508,31.250,-116.699,111.816
1584600782.852,36.621,24.414,30.762,130.371,63.477
1584600782.856,52.734,24.414,28.809,182.617,-20.508
1584600782.860,23.438,15.625,24.414,-46.387,-35.156
1584600782.864,10.254,17.090,21.973,-154.297,40.527
1584600782.868,41.504,28.320,28.320,63.965,116.211
1584600782.872,46.875,28.320,28.809,209.473,107.422
1584600782.876,9.766,20.020,22.949,28.809,-16.113
1584600782.880,-8.789,18.555,20.508,-156.738,-31.250
1584600782.884,24.902,25.391,20.996,-10.742,19.531
1584600782.888,51.758,30.273,22.949,197.754,-1.953
1584600782.892,36.621,27.344,19.531,94.727,-57.129
1584600782.895,5.859,21.484,14.160,-143.066,-36.621
1584600782.899,21.973,22.949,19.043,-76.660,54.199
1584600782.903,62.500,30.273,28.320,175.293,19.043
1584600782.907,49.805,28.809,25.879,164.551,35.645
1584600782.911,15.625,25.879,20.996,-83.496,41.504
1584600782.915,13.184,31.250,26.855,-123.047,-18.066
1584600782.919,43.457,36.621,31.250,123.535,14.160
1584600782.923,56.641,33.691,28.320,200.684,32.715
1584600782.927,12.207,24.414,26.855,-19.531,33.691
1584600782.931,-11.719,22.461,27.832,-151.855,48.340
1584600782.935,23.438,30.762,31.738,49.316,55.664
1584600782.938,43.945,29.297,28.809,213.867,51.270
1584600782.942,26.855,21.973,22.949,42.480,17.090
1584600782.946,10.742,23.926,25.879,-162.109,16.602
1584600782.950,30.273,31.250,28.320,-21.484,40.039
1584600782.954,51.758,36.621,33.203,208.496,68.359
1584600782.958,37.598,30.762,34.180,120.605,6.348
1584600782.962,-4.395,17.578,24.902,-134.766,33.203
1584600782.966,5.859,25.391,23.926,-99.609,79.102
1584600782.970,50.293,33.691,27.832,154.297,21.484
1584600782.974,42.480,23.926,26.855,161.133,5.859
1584600782.977,-10.254,18.066,20.508,-82.520,70.312
1584600782.981,-18.555,20.508,18.555,-142.090,63.477
1584600782.985,24.902,22.461,22.949,89.355,-9.766
1584600782.989,41.992,30.762,30.273,192.383,34.668
1584600782.993,17.090,31.738,31.738,-7.324,52.734
1584600782.997,-6.836,19.531,22.461,-165.039,12.695
1584600783.001,21.973,23.438,19.043,16.113,62.988
1584600783.005,56.152,31.250,19.043,212.402,82.520
1584600783.009,53.711,28.809,20.508,86.426,40.527
1584600783.013,20.996,23.926,24.902,-137.695,45.898
1584600783.017,22.949,24.902,29.785,-49.316,55.664
1584600783.020,42.969,31.250,30.762,180.176,79.102
1584600783.024,34.668,29.297,28.809,127.441,39.551
1584600783.028,5.859,21.484,26.855,-118.652,-9.766
1584600783.032,2.930,21.973,31.738,-114.746,54.199
1584600783.036,34.668,27.344,38.574,141.602,40.527
1584600783.040,38.574,22.461,35.645,183.594,41.016
1584600783.044,4.395,14.160,26.855,-54.688,73.730
1584600783.048,-10.742,15.137,25.391,-140.137,60.059
1584600783.052,31.738,21.973,32.227,88.867,49.316
1584600783.056,56.152,26.855,37.109,219.727,-20.996
1584600783.060,21.484,22.461,36.133,25.879,5.371
1584600783.063,1.953,19.531,36.133,-148.438,31.250
1584600783.067,24.414,24.414,37.109,23.438,-26.855
1584600783.071,44.434,21.973,32.227,216.797,-16.602
1584600783.075,36.133,13.184,26.367,82.520,1.953
1584600783.079,12.695,12.207,26.855,-155.273,53.711
1584600783.083,17.090,23.438,32.715,-65.918,49.805
1584600783.087,35.645,28.809,31.738,182.617,10.742
1584600783.091,35.156,24.902,30.273,148.438,56.641
1584600783.095,7.812,21.973,27.832,-98.633,24.902
1584600783.099,6.348,22.949,25.879,-123.535,18.066
1584600783.102,49.316,27.344,31.250,122.070,33.203
1584600783.106,54.199,27.344,30.762,187.500,73.242
1584600783.110,17.578,23.438,23.926,-44.922,63.965
1584600783.114,4.883,23.926,25.879,-158.691,34.180
1584600783.118,34.668,31.738,34.668,63.965,82.520
1584600783.122,47.363,37.109,34.180,209.961,46.875
1584600783.126,12.695,30.273,29.297,25.391,14.648
1584600783.130,-14.648,21.484,23.926,-163.574,20.020
1584600783.134,16.113,26.855,28.809,-7.324,31.738
1584600783.138,53.223,30.762,36.621,207.520,28.809
1584600783.142,48.340,28.809,33.203,99.121,9.766
1584600783.145,19.531,24.414,26.855,-141.113,-20.996
1584600783.149,19.043,27.832,24.902,-79.590,9.277
1584600783.153,51.758,33.691,25.879,166.504,25.879
1584600783.157,58.594,28.320,27.832,152.344,37.598
1584600783.161,20.508,20.508,25.391,-92.773,27.832
1584600783.165,8.789,22.949,22.461,-136.719,-12.207
1584600783.169,35.156,28.320,26.367,105.957,32.715
1584600783.173,38.574,30.273,26.855,195.312,18.555
1584600783.177,21.484,31.738,27.344,-21.484,65.918
1584600783.181,17.090,27.832,28.809,-158.691,113.281
1584600783.185,45.410,31.738,34.668,50.293,27.832
1584600783.188,65.918,37.598,37.109,218.750,31.738
1584600783.192,27.344,26.855,27.344,50.293,64.453
1584600783.196,-12.695,17.090,23.926,-153.320,28.809
1584600783.200,7.812,21.973,26.855,-27.832,9.277
1584600783.204,39.062,27.344,26.367,196.777,2.441
1584600783.208,34.668,26.367,23.926,115.234,8.789
1584600783.212,6.836,25.391,21.484,-135.742,72.266
1584600783.216,19.531,30.762,23.926,-103.027,48.828
1584600783.220,61.035,35.156,28.809,160.156,37.598
1584600783.224,50.293,26.367,24.902,178.711,47.363
1584600783.227,13.672,16.602,25.391,-64.453,34.668
1584600783.231,20.508,20.020,34.180,-125.977,55.664
1584600783.235,41.504,31.250,35.645,115.723,51.758
1584600783.239,41.992,35.156,33.691,215.332,-50.781
1584600783.243,17.090,27.832,23.926,-10.742,-53.711
1584600783.247,-1.953,25.879,19.531,-173.340,-20.508
1584600783.251,28.320,35.645,29.297,22.461,7.324
1584600783.255,55.664,30.762,32.715,214.355,64.941
1584600783.259,41.504,20.508,26.855,67.383,59.570
1584600783.263,17.090,20.508,25.879,-155.273,-26.367
1584600783.267,29.297,24.902,31.250,-44.434,-11.719
1584600783.270,53.711,29.785,30.273,193.359,32.715
1584600783.274,46.875,29.785,27.832,131.836,-6.348
1584600783.278,20.020,23.438,26.855,-121.582,18.555
1584600783.282,26.855,22.949,28.809,-109.863,23.438
1584600783.286,68.848,38.086,40.527,154.297,-3.906
1584600783.290,57.129,36.621,41.992,193.359,36.621
1584600783.294,1.953,17.090,29.297,-53.223,1.465
1584600783.298,-3.418,13.672,28.809,-149.414,-19.531
1584600783.302,41.504,26.855,33.691,81.543,4.395
1584600783.306,51.758,33.691,31.738,210.449,11.719
1584600783.310,9.766,17.578,25.879,11.230,0.977
1584600783.313,-7.812,9.277,23.926,-159.180,-2.930
1584600783.317,29.297,20.508,30.762,11.230,0.000
1584600783.321,63.965,26.367,34.180,211.914,19.531
1584600783.325,38.574,23.926,26.855,90.820,34.668
1584600783.329,9.277,22.949,24.902,-140.137,30.273
1584600783.333,35.645,30.273,29.297,-57.617,56.152
1584600783.337,63.965,35.645,29.785,186.035,49.316
1584600783.341,41.992,29.785,25.879,149.414,0.488
1584600783.345,6.836,26.855,22.949,-96.680,-7.324
1584600783.349,23.438,32.715,27.832,-111.328,10.742
1584600783.352,45.410,32.227,28.320,130.859,78.613
1584600783.356,35.156,28.320,23.926,192.383,72.754
1584600783.360,5.859,22.461,20.996,-36.621,-5.371
1584600783.364,-2.441,20.020,23.438,-158.691,-45.410
1584600783.368,29.297,28.320,31.250,57.617,-6.348
1584600783.372,43.945,32.227,29.785,215.332,78.613
1584600783.376,23.926,25.391,24.902,36.621,54.199
1584600783.380,3.906,24.414,29.785,-157.715,0.977
1584600783.384,21.973,30.273,33.203,-7.812,66.895
1584600783.388,48.340,34.180,36.621,214.844,79.590
1584600783.392,27.832,28.320,30.273,110.840,2.930
1584600783.395,-4.395,16.602,15.625,-142.090,-13.672
1584600783.399,-3.906,19.531,18.066,-88.379,-18.066
1584600783.403,34.668,27.344,24.902,165.039,-21.484
1584600783.407,34.180,25.391,24.414,150.391,31.738
1584600783.411,-1.465,21.973,25.879,-96.191,31.250
1584600783.415,8.301,25.879,26.855,-135.742,27.344
1584600783.419,38.086,32.227,26.367,108.398,-3.906
1584600783.423,37.109,29.297,25.879,198.242,-9.766
1584600783.427,17.090,21.484,22.949,-19.531,-33.203
1584600783.431,6.348,24.414,23.926,-156.738,-2.930
1584600783.435,21.973,32.715,28.320,45.410,84.473
1584600783.438,32.715,34.668,30.762,216.309,74.707
1584600783.442,12.695,26.367,24.902,52.734,-10.254
1584600783.446,-8.301,22.949,17.578,-154.785,-32.227
1584600783.450,15.137,28.809,19.531,-30.273,-22.461
1584600783.454,49.316,30.273,24.414,192.383,3.906
1584600783.458,37.109,23.926,23.438,113.281,12.695
1584600783.462,9.766,21.484,20.996,-131.348,-5.371
1584600783.466,17.578,25.879,25.879,-95.215,-17.578
1584600783.470,39.062,27.832,29.297,157.715,-35.645
1584600783.474,36.621,21.973,22.949,168.945,39.062
1584600783.477,-1.465,18.066,16.602,-70.312,58.105
1584600783.481,-4.883,26.855,22.461,-134.277,36.133
1584600783.485,46.387,35.645,29.785,102.051,48.340
1584600783.489,64.941,35.156,26.367,207.031,55.176
1584600783.493,34.180,27.344,21.484,-4.395,21.484
1584600783.497,5.859,19.531,18.066,-168.945,15.625
1584600783.501,26.855,29.785,20.020,16.602,2.930
1584600783.505,47.852,35.156,25.391,208.496,11.230
1584600783.509,17.090,20.508,20.996,68.359,31.738
1584600783.513,-14.648,16.602,17.090,-154.297,25.391
1584600783.517,6.836,28.320,22.461,-48.828,63.965
1584600783.520,40.527,27.832,28.320,188.965,91.797
1584600783.524,44.434,23.438,26.367,130.371,83.008
1584600783.528,18.066,23.926,22.949,-120.117,64.941
1584600783.532,12.695,22.949,25.879,-113.281,45.410
1584600783.536,40.527,30.273,31.738,144.043,-0.977
1584600783.540,39.551,31.250,35.156,184.082,-19.043
1584600783.544,6.348,25.879,31.738,-62.500,-14.160
1584600783.548,-6.836,26.367,27.832,-152.832,3.906
1584600783.552,24.414,28.809,25.879,77.148,33.691
1584600783.556,47.852,27.832,23.926,201.660,40.039
1584600783.560,26.855,28.809,22.461,6.836,40.527
1584600783.563,15.137,33.203,25.879,-163.086,28.809
1584600783.567,29.785,32.715,29.785,6.836,26.855
1584600783.571,37.598,26.855,25.879,207.031,22.949
1584600783.575,17.578,17.578,18.066,82.031,13.672
1584600783.579,-6.348,21.973,20.996,-147.461,13.672
1584600783.583,9.277,32.715,26.855,-62.012,30.273
1584600783.587,38.574,28.320,24.414,177.246,7.812
1584600783.591,38.574,24.414,21.484,140.625,7.812
1584600783.595,8.301,19.043,16.113,-108.887,54.199
1584600783.599,3.418,14.648,15.625,-123.047,48.340
1584600783.602,38.086,24.902,24.902,135.742,3.418
1584600783.606,36.621,34.668,28.809,197.266,-45.898
1584600783.610,-5.371,26.367,22.949,-37.109,53.711
1584600783.614,-14.648,20.996,18.066,-154.785,109.863
1584600783.618,24.414,32.227,25.391,61.035,44.922
1584600783.622,53.223,35.645,30.762,210.449,20.996
1584600783.626,35.156,24.902,22.949,30.762,12.695
1584600783.630,6.348,20.020,13.672,-164.551,5.859
1584600783.634,19.043,32.715,20.508,-18.066,-6.348
1584600783.638,47.852,39.062,28.809,206.543,37.109
1584600783.642,40.039,28.809,26.367,110.840,91.797
1584600783.645,6.836,20.020,21.484,-136.719,12.207
1584600783.649,9.766,20.996,20.020,-87.402,-10.742
1584600783.653,56.152,28.320,27.832,174.316,47.852
1584600783.657,57.617,25.879,28.809,172.852,29.297
1584600783.661,0.488,15.625,16.602,-88.379,45.898
1584600783.665,-12.207,17.578,17.090,-138.184,69.336
1584600783.669,26.855,27.344,31.250,114.258,63.965
1584600783.673,40.527,28.320,33.691,205.078,40.527
1584600783.677,17.090,16.602,21.973,-23.926,18.066
1584600783.681,-0.977,12.695,22.461,-167.480,8.789
1584600783.685,21.484,20.020,29.785,34.668,5.371
1584600783.688,53.711,24.414,30.273,211.426,25.391
1584600783.692,35.645,22.461,26.367,57.129,-1.953
1584600783.696,-2.441,17.090,25.391,-157.227,-26.855
1584600783.700,11.719,21.973,30.762,-33.691,9.277
1584600783.704,43.945,26.855,35.645,198.730,52.246
1584600783.708,26.855,22.461,32.227,115.723,85.938
1584600783.712,-5.371,21.484,28.809,-133.789,72.754
1584600783.716,1.465,23.926,33.691,-98.633,70.312
1584600783.720,40.527,23.926,34.180,153.809,37.109
1584600783.724,47.852,24.902,31.250,167.480,-30.762
1584600783.727,13.672,19.043,31.250,-78.613,0.488
1584600783.731,-0.977,14.160,29.297,-152.344,-16.113
1584600783.735,23.926,17.578,27.832,80.566,22.949
1584600783.739,40.039,21.484,27.832,189.941,86.426
1584600783.743,17.578,21.973,24.414,-10.254,-49.805
1584600783.747,3.906,16.113,22.461,-168.457,-75.195
1584600783.751,39.062,21.484,29.785,18.555,83.008
1584600783.755,52.246,27.344,32.227,210.449,68.848
1584600783.759,23.438,19.531,28.809,67.383,26.367
1584600783.763,-1.465,12.695,25.879,-159.668,66.895
1584600783.767,13.184,21.973,30.273,-59.082,61.035
1584600783.770,50.781,29.297,35.156,185.547,15.625
1584600783.774,35.645,20.508,25.879,129.395,-10.742
1584600783.778,-1.953,15.137,20.020,-122.559,-11.230
1584600783.782,5.859,20.020,20.020,-124.023,20.996
1584600783.786,41.992,29.297,22.461,131.348,47.363
1584600783.790,46.387,27.832,22.949,175.293,24.414
1584600783.794,11.230,15.137,20.020,-66.895,-1.465
1584600783.798,7.812,18.066,23.926,-156.738,-21.484
1584600783.802,40.527,29.785,28.320,73.730,27.344
1584600783.806,43.945,26.855,30.762,210.449,86.914
1584600783.810,18.555,19.043,30.762,16.602,5.859
1584600783.813,8.789,19.531,21.484,-162.109,-55.176
1584600783.817,33.203,25.879,23.926,5.371,21.973
1584600783.821,38.574,29.297,30.273,215.332,23.926
1584600783.825,16.602,22.949,26.367,96.191,-25.391
1584600783.829,-1.465,19.043,25.391,-142.578,18.066
1584600783.833,8.301,21.973,28.320,-60.059,46.875
1584600783.837,39.062,22.949,29.297,188.965,63.477
1584600783.841,36.133,23.926,28.809,162.598,46.875
1584600783.845,12.695,21.973,26.855,-86.914,0.977
1584600783.849,12.695,26.367,28.809,-112.305,-30.762
1584600783.852,45.898,32.715,28.320,139.648,2.441
1584600783.856,59.082,31.250,25.879,205.078,24.902
1584600783.860,16.113,19.043,22.461,-29.785,20.508
1584600783.864,-11.230,13.672,19.043,-149.902,33.691
1584600783.868,26.855,30.273,24.902,68.848,54.688
1584600783.872,58.594,35.645,29.785,217.285,52.734
1584600783.876,32.227,26.367,25.391,33.691,45.410
1584600783.880,5.859,22.461,21.484,-160.645,58.105
1584600783.884,41.504,24.414,27.344,-13.672,13.184
1584600783.888,59.082,26.367,30.762,204.590,-9.766
1584600783.892,29.785,25.879,26.367,109.863,18.555
1584600783.895,6.836,22.461,26.367,-129.883,11.230
1584600783.899,20.996,26.367,33.203,-77.148,-21.484
1584600783.903,51.270,33.203,38.086,176.758,-31.250
1584600783.907,46.875,27.344,33.691,169.434,-5.859
1584600783.911,10.742,13.672,24.414,-89.355,-1.465
1584600783.915,5.371,15.625,23.438,-141.602,-34.180
1584600783.919,52.734,31.250,34.668,105.957,-32.715
1584600783.923,56.641,30.762,37.598,198.242,20.020
1584600783.927,13.184,15.625,28.809,-13.184,61.523
1584600783.931,4.395,14.160,24.902,-155.273,38.086
1584600783.935,38.574,23.926,32.227,42.969,42.969
1584600783.938,58.594,26.855,36.133,217.773,48.828
1584600783.942,34.180,24.902,28.809,61.035,62.988
1584600783.946,20.508,24.414,25.391,-153.320,18.066
1584600783.950,49.316,32.715,31.738,-33.203,-32.715
1584600783.954,53.711,37.109,33.691,201.660,41.016
1584600783.958,32.715,28.809,27.832,130.859,18.066
1584600783.962,14.160,19.531,22.461,-122.559,-7.812
1584600783.966,22.461,19.531,23.926,-101.074,41.992
1584600783.970,57.617,24.414,31.250,162.598,62.988
1584600783.974,57.129,27.344,35.645,189.941,93.750
1584600783.977,18.066,22.949,29.297,-58.105,50.781
1584600783.981,-2.930,18.555,27.344,-138.184,5.859
1584600783.985,32.715,25.391,32.227,98.145,11.719
1584600783.989,57.129,30.762,30.273,212.891,34.668
1584600783.993,27.832,25.391,22.949,1.465,10.742
1584600783.997,6.836,18.555,19.043,-162.109,-30.273
1584600784.001,38.086,27.832,24.902,24.902,1.465
1584600784.005,59.082,35.156,29.785,216.797,42.969
1584600784.009,39.062,28.320,25.879,68.848,22.461
1584600784.013,-1.465,21.484,20.996,-159.180,-32.715
1584600784.017,14.648,25.391,24.902,-53.711,6.348
1584600784.020,70.801,37.109,33.691,190.918,92.285
1584600784.024,62.988,29.785,27.832,140.625,86.426
1584600784.028,16.113,16.113,20.996,-110.840,16.113
1584600784.032,6.348,15.137,24.902,-108.887,33.691
1584600784.036,45.898,19.531,29.785,143.555,53.223
1584600784.040,55.664,24.414,25.879,179.688,-14.648
1584600784.044,11.230,20.996,21.484,-53.711,11.719
1584600784.048,-2.441,21.484,27.344,-140.625,41.016
1584600784.052,39.062,33.691,34.180,84.473,50.293
1584600784.056,61.035,34.668,35.645,215.332,7.812
1584600784.060,26.855,20.996,32.227,30.273,-4.395
1584600784.063,5.859,6.836,32.715,-132.812,27.832
1584600784.067,51.758,16.602,33.691,47.852,36.133
1584600784.071,70.312,44.922,28.809,227.539,54.688
1584600784.075,25.391,43.945,22.949,78.613,-2.930
1584600784.079,3.418,32.715,18.066,-153.809,-32.715
1584600784.083,28.809,41.992,18.555,-79.590,36.621
1584600784.087,56.152,49.805,17.090,156.738,49.316
1584600784.091,45.410,43.457,13.184,128.906,52.734
1584600784.095,8.789,37.598,7.812,-119.629,20.508
1584600784.099,9.766,43.457,7.812,-144.043,37.598
1584600784.102,51.758,53.223,10.742,99.121,31.738
1584600784.106,56.152,54.199,5.371,164.062,-22.949
1584600784.110,21.484,41.992,-1.465,-59.570,5.859
1584600784.114,-1.953,42.480,0.000,-185.547,24.902
1584600784.118,18.066,57.129,10.742,26.855,-23.926
1584600784.122,44.922,52.734,7.324,180.664,-27.344
1584600784.126,19.531,41.992,1.465,7.324,35.645
1584600784.130,-12.695,45.898,5.371,-180.664,5.859
1584600784.134,10.254,49.805,4.883,-41.504,-15.625
1584600784.138,40.527,46.387,0.000,184.570,34.180
1584600784.142,31.250,41.992,-3.906,95.215,37.598
1584600784.145,0.000,39.062,-2.930,-149.902,45.898
1584600784.149,7.324,41.992,4.395,-97.168,12.695
1584600784.153,52.246,49.805,11.719,163.574,5.371
1584600784.157,44.922,39.551,7.812,160.156,65.430
1584600784.161,9.277,28.809,6.348,-97.168,70.801
1584600784.165,7.324,35.645,10.254,-143.066,58.105
1584600784.169,49.316,41.504,14.648,105.957,-2.930
1584600784.173,74.707,44.434,15.625,198.242,35.156
1584600784.177,39.551,38.574,13.672,-17.578,46.387
1584600784.181,15.137,27.344,11.719,-159.668,-16.113
1584600784.185,41.992,31.250,16.113,36.621,14.648
1584600784.188,66.406,41.992,25.391,217.285,27.344
1584600784.192,49.316,36.133,24.414,62.500,-24.414
1584600784.196,29.785,27.832,20.996,-152.832,-14.648
1584600784.200,48.828,34.668,20.020,-33.691,11.719
1584600784.204,74.707,37.109,21.973,195.312,-31.738
1584600784.208,64.453,30.762,23.926,126.465,27.832
1584600784.212,28.320,26.855,20.996,-117.188,41.016
1584600784.216,34.180,33.203,23.926,-87.891,49.805
1584600784.220,70.801,39.551,29.785,168.457,49.316
1584600784.224,59.082,34.180,28.320,193.359,19.043
1584600784.227,17.090,21.484,19.531,-59.082,14.648
1584600784.231,13.184,19.531,18.066,-144.531,17.578
1584600784.235,52.246,31.738,23.438,98.633,29.297
1584600784.239,66.895,37.109,24.902,219.727,47.363
1584600784.243,44.922,33.691,26.855,18.555,6.348
1584600784.247,22.949,31.250,27.832,-146.973,-9.277
1584600784.251,31.738,31.738,26.367,27.344,11.230
1584600784.255,51.270,25.879,23.926,214.355,-6.348
1584600784.259,23.926,16.602,17.090,74.219,65.918
1584600784.263,-5.371,17.090,14.648,-143.066,119.141
1584600784.267,20.508,28.320,25.879,-37.598,110.352
1584600784.270,58.594,39.551,32.227,202.637,91.797
1584600784.274,48.340,30.273,21.484,146.973,30.762
1584600784.278,-0.488,15.625,9.277,-113.770,5.371
1584600784.282,4.883,21.973,12.207,-115.234,21.484
1584600784.286,58.105,33.691,22.461,143.555,36.133
1584600784.290,58.594,32.227,26.855,193.359,28.809
1584600784.294,18.555,23.926,26.367,-49.805,27.832
1584600784.298,4.883,20.508,22.461,-153.320,1.953
1584600784.302,31.250,24.902,25.391,74.707,4.883
1584600784.306,46.387,26.367,23.926,206.055,-18.555
1584600784.310,36.133,23.438,20.996,17.090,0.977
1584600784.313,21.973,20.020,23.438,-155.762,134.766
1584600784.317,37.598,22.949,21.484,2.930,115.723
1584600784.321,58.105,29.785,25.879,215.820,7.324
1584600784.325,35.156,18.555,25.879,109.375,10.254
1584600784.329,10.254,8.301,19.531,-120.605,-9.766
1584600784.333,28.320,20.996,21.973,-63.477,-17.578
1584600784.337,35.645,32.227,23.438,156.738,30.762
1584600784.341,20.020,24.414,22.461,133.789,44.434
1584600784.345,-5.371,18.066,23.438,-103.027,44.922
1584600784.349,-1.465,27.832,27.832,-124.023,16.113
1584600784.352,47.363,41.016,37.109,132.812,-4.395
1584600784.356,54.199,31.250,31.738,199.707,0.000
1584600784.360,19.043,14.648,18.555,-34.180,1.953
1584600784.364,8.789,16.602,15.625,-152.832,1.465
1584600784.368,48.828,28.809,20.020,62.988,57.129
1584600784.372,71.289,28.809,20.020,216.797,85.449
1584600784.376,29.785,18.555,17.090,41.504,34.668
1584600784.380,-4.883,14.648,18.555,-160.156,0.977
1584600784.384,31.738,24.414,23.438,-25.879,8.301
1584600784.388,65.918,34.180,29.785,198.730,49.805
1584600784.392,35.156,28.320,30.762,117.676,50.293
1584600784.395,-9.766,16.113,19.043,-132.324,0.977
1584600784.399,0.977,17.090,20.508,-89.355,-14.648
1584600784.403,41.016,24.902,29.785,172.852,0.977
1584600784.407,46.387,27.832,28.320,173.828,1.953
1584600784.411,20.508,23.438,22.949,-80.566,29.785
